#Time/s	     Potential/V	Current/A	resistance/Ohm	Charge/C               Frequency/Hz	mass/g
145.9586	-0.20300	-1.85E-05	1137.92900	0	0	0
146.0120	-0.20404	-2.00E-05	1137.79438	-1.07E-06	-0.71618	7.65E-10
146.06541	-0.20511	-2.11E-05	1138.29103	-2.20E-06	-4.81102	5.14E-09
146.11882	-0.20618	-2.18E-05	1138.74566	-3.36E-06	-6.99061	7.47E-09
146.17222	-0.20724	-2.25E-05	1139.0287	-4.56E-06	-5.70214	6.09E-09
146.22563	-0.20831	-2.31E-05	1139.3377	-5.80E-06	-5.67919	6.07E-09
146.27903	-0.20941	-2.36E-05	1139.70084	-7.06E-06	-2.3986	2.56E-09
146.33244	-0.21048	-2.41E-05	1139.84695	-8.35E-06	-2.60246	2.78E-09
146.38585	-0.21152	-2.45E-05	1139.72946	-9.66E-06	-1.68045	1.79E-09
146.43925	-0.21262	-2.49E-05	1139.7573	-1.10E-05	-6.49575	6.94E-09
146.49266	-0.21365	-2.54E-05	1139.89081	-1.23E-05	-1.98621	2.12E-09
146.54606	-0.21472	-2.57E-05	1139.36788	-1.37E-05	-4.05191	4.33E-09
146.59947	-0.21582	-2.59E-05	1138.57217	-1.51E-05	-4.98121	5.32E-09
146.65288	-0.21689	-2.64E-05	1138.48899	-1.65E-05	0.95928	-1.02E-09
146.70628	-0.21796	-2.64E-05	1138.54773	-1.79E-05	-4.12635	4.41E-09
146.75969	-0.21902	-2.69E-05	1138.37545	-1.94E-05	-3.35797	3.59E-09
146.81309	-0.22006	-2.71E-05	1138.23181	-2.08E-05	-3.32494	3.55E-09
146.8665	-0.22113	-2.72E-05	1138.47746	-2.23E-05	-3.43038	3.66E-09
146.91991	-0.22223	-2.76E-05	1138.65614	-2.37E-05	-4.68379	5.00E-09
146.97331	-0.22327	-2.77E-05	1138.59206	-2.52E-05	-5.2161	5.57E-09
147.02672	-0.22437	-2.78E-05	1138.69132	-2.67E-05	-7.04428	7.52E-09
147.08012	-0.22543	-2.80E-05	1139.10252	-2.82E-05	-5.84745	6.25E-09
147.13353	-0.22650	-2.82E-05	1139.17659	-2.97E-05	-5.75919	6.15E-09
147.18694	-0.22754	-2.84E-05	1138.8722	-3.12E-05	-5.78668	6.18E-09
147.24034	-0.22864	-2.86E-05	1138.61255	-3.27E-05	-4.74764	5.07E-09
147.29375	-0.22968	-2.87E-05	1138.38292	-3.43E-05	-2.3131	2.47E-09
147.34715	-0.23074	-2.88E-05	1138.39366	-3.58E-05	-7.98797	8.53E-09
147.40056	-0.23184	-2.90E-05	1138.49513	-3.74E-05	-3.14552	3.36E-09
147.45397	-0.23291	-2.95E-05	1138.6604	-3.89E-05	1.11572	-1.19E-09
147.50737	-0.23398	-2.93E-05	1138.83663	-4.05E-05	-5.09189	5.44E-09
147.56078	-0.23508	-2.94E-05	1138.79809	-4.21E-05	-4.46654	4.77E-09
147.61418	-0.23608	-2.89E-05	1138.7762	-4.36E-05	-2.69287	2.88E-09
147.66759	-0.23715	-2.94E-05	1138.92573	-4.52E-05	-4.44391	4.75E-09
147.7210	-0.23825	-2.97E-05	1139.06896	-4.68E-05	-5.01682	5.36E-09
147.7744	-0.23932	-2.98E-05	1139.19179	-4.84E-05	-7.59961	8.12E-09
147.82781	-0.24039	-2.98E-05	1139.23121	-4.99E-05	-6.81111	7.27E-09
147.88121	-0.24146	-3.00E-05	1139.1244	-5.16E-05	-5.21405	5.57E-09
147.93462	-0.24252	-3.00E-05	1138.96519	-5.32E-05	-7.44736	7.95E-09
147.98803	-0.24359	-3.01E-05	1138.75157	-5.48E-05	-6.65803	7.11E-09
148.04143	-0.24466	-3.03E-05	1138.78223	-5.64E-05	-5.1275	5.48E-09
148.09484	-0.24573	-3.03E-05	1138.9638	-5.80E-05	-4.62822	4.94E-09
148.14824	-0.24680	-3.04E-05	1138.93037	-5.96E-05	-9.2058	9.83E-09
148.20165	-0.24789	-3.05E-05	1138.82356	-6.12E-05	-3.96626	4.24E-09
148.25506	-0.24893	-3.05E-05	1138.86595	-6.29E-05	-4.43072	4.73E-09
148.30846	-0.25000	-3.05E-05	1138.93015	-6.45E-05	-5.6715	6.06E-09
148.36187	-0.25107	-3.07E-05	1139.27193	-6.61E-05	-0.27395	2.93E-10
148.41527	-0.25214	-3.06E-05	1139.57342	-6.78E-05	-4.18283	4.47E-09
148.46868	-0.25320	-3.08E-05	1139.60012	-6.94E-05	-5.13386	5.48E-09
148.52209	-0.25427	-3.09E-05	1139.60364	-7.11E-05	-3.79312	4.05E-09
148.57549	-0.25534	-3.08E-05	1139.53955	-7.27E-05	-8.22532	8.78E-09
148.6289	-0.25641	-3.10E-05	1139.45094	-7.44E-05	-2.90511	3.10E-09
148.6823	-0.25748	-3.11E-05	1139.32277	-7.60E-05	-10.45274	1.12E-08
148.73571	-0.25854	-3.11E-05	1139.33629	-7.77E-05	-1.77656	1.90E-09
148.78912	-0.25961	-3.11E-05	1139.48582	-7.94E-05	-8.31469	8.88E-09
148.84252	-0.26068	-3.12E-05	1139.52978	-8.10E-05	-3.33766	3.56E-09
148.89593	-0.26175	-3.11E-05	1139.51376	-8.27E-05	-6.8072	7.27E-09
148.94933	-0.26285	-3.13E-05	1139.60806	-8.44E-05	-1.91718	2.05E-09
149.00274	-0.26392	-3.14E-05	1139.73623	-8.60E-05	-2.23362	2.39E-09
149.05615	-0.26495	-3.13E-05	1140.00263	-8.77E-05	-5.67471	6.06E-09
149.10955	-0.26605	-3.14E-05	1140.28075	-8.94E-05	-5.16443	5.52E-09
149.16296	-0.26709	-3.15E-05	1140.31813	-9.11E-05	-8.68386	9.27E-09
149.21636	-0.26819	-3.15E-05	1140.31535	-9.28E-05	-11.91739	1.27E-08
149.26977	-0.26926	-3.16E-05	1140.08038	-9.44E-05	-9.75281	1.04E-08
149.32318	-0.27032	-3.15E-05	1139.83073	-9.61E-05	-4.4276	4.73E-09
149.37658	-0.27139	-3.15E-05	1139.54235	-9.78E-05	-5.35805	5.72E-09
149.42999	-0.27249	-3.21E-05	1139.41942	-9.95E-05	-6.99343	7.47E-09
149.48339	-0.27356	-3.19E-05	1139.54225	-1.01E-04	-8.42092	8.99E-09
149.5368	-0.2746	-3.14E-05	1139.24352	-1.03E-04	-7.57849	8.09E-09
149.59021	-0.27567	-3.16E-05	1138.57064	-1.05E-04	-4.39477	4.69E-09
149.64361	-0.27673	-3.19E-05	1138.34	-1.06E-04	-9.30258	9.94E-09
149.69702	-0.2778	-3.18E-05	1138.34	-1.08E-04	-7.51454	8.03E-09
149.75042	-0.27887	-3.18E-05	1138.36514	-1.10E-04	-7.04167	7.52E-09
149.80383	-0.27994	-3.19E-05	1138.39718	-1.11E-04	-2.63831	2.82E-09
149.85724	-0.28101	-3.18E-05	1138.47306	-1.13E-04	-7.88602	8.42E-09
149.91064	-0.28207	-3.19E-05	1138.53859	-1.15E-04	-13.62876	1.46E-08
149.96405	-0.28314	-3.20E-05	1138.25021	-1.16E-04	-6.88661	7.35E-09
150.01745	-0.28418	-3.18E-05	1138.07065	-1.18E-04	-7.99061	8.53E-09
150.07086	-0.28528	-3.20E-05	1138.43379	-1.20E-04	-6.51212	6.95E-09
150.12427	-0.28635	-3.21E-05	1138.7529	-1.22E-04	-7.7473	8.27E-09
150.17767	-0.28741	-3.20E-05	1138.96651	-1.23E-04	-8.12936	8.68E-09
150.23108	-0.28848	-3.21E-05	1139.12154	-1.25E-04	-6.32392	6.75E-09
150.28448	-0.28955	-3.20E-05	1139.19631	-1.27E-04	-10.42302	1.11E-08
150.33789	-0.29062	-3.21E-05	1139.35028	-1.28E-04	-7.95643	8.50E-09
150.3913	-0.29169	-3.22E-05	1139.56923	-1.30E-04	-12.04607	1.29E-08
150.4447	-0.29276	-3.22E-05	1139.78818	-1.32E-04	-6.02506	6.43E-09
150.49811	-0.29382	-3.21E-05	1140.00714	-1.34E-04	-10.13221	1.08E-08
150.55151	-0.29489	-3.22E-05	1140.09724	-1.35E-04	-7.18065	7.67E-09
150.60492	-0.29599	-3.23E-05	1140.15599	-1.37E-04	-6.15416	6.57E-09
150.65833	-0.29703	-3.22E-05	1140.63267	-1.39E-04	-13.18999	1.41E-08
150.71173	-0.29813	-3.23E-05	1141.10558	-1.41E-04	-8.25762	8.82E-09
150.76514	-0.29916	-3.23E-05	1141.03082	-1.42E-04	-4.10209	4.38E-09
150.81854	-0.30023	-3.24E-05	1140.92218	-1.44E-04	-7.03135	7.51E-09
150.87195	-0.30133	-3.24E-05	1140.66584	-1.46E-04	-7.77605	8.30E-09
150.92536	-0.30237	-3.24E-05	1140.39274	-1.47E-04	-9.03991	9.65E-09
150.97876	-0.30347	-3.24E-05	1140.083	-1.49E-04	-10.38141	1.11E-08
151.03217	-0.30453	-3.23E-05	1139.94301	-1.51E-04	-8.17679	8.73E-09
151.08557	-0.30557	-3.25E-05	1140.01777	-1.53E-04	-8.65344	9.24E-09
151.13898	-0.30667	-3.25E-05	1139.73404	-1.54E-04	-11.21913	1.20E-08
151.19239	-0.30774	-3.25E-05	1139.17865	-1.56E-04	-7.21263	7.70E-09
151.24579	-0.30881	-3.24E-05	1138.93563	-1.58E-04	-11.64306	1.24E-08
151.2992	-0.30988	-3.25E-05	1138.82882	-1.60E-04	-7.88858	8.43E-09
151.3526	-0.31097	-3.30E-05	1139.02557	-1.61E-04	-10.32698	1.10E-08
151.40601	-0.31204	-3.26E-05	1139.28724	-1.63E-04	-9.7289	1.04E-08
151.45942	-0.31308	-3.26E-05	1139.76227	-1.65E-04	-7.39078	7.89E-09
151.51282	-0.31415	-3.25E-05	1140.17765	-1.67E-04	-13.3429	1.43E-08
151.56623	-0.31522	-3.27E-05	1139.76644	-1.68E-04	-8.24601	8.81E-09
151.61963	-0.31631	-3.27E-05	1139.47633	-1.70E-04	-8.41287	8.98E-09
151.67304	-0.31738	-3.26E-05	1139.65256	-1.72E-04	-5.73476	6.12E-09
151.72645	-0.31842	-3.26E-05	1139.70943	-1.74E-04	-8.23311	8.79E-09
151.77985	-0.31952	-3.27E-05	1139.52786	-1.75E-04	-8.83081	9.43E-09
151.83326	-0.32059	-3.27E-05	1139.36599	-1.77E-04	-11.82791	1.26E-08
151.88666	-0.32162	-3.28E-05	1139.22714	-1.79E-04	-11.2994	1.21E-08
151.94007	-0.32272	-3.28E-05	1138.8526	-1.81E-04	-10.49832	1.12E-08
151.99348	-0.32379	-3.28E-05	1138.31323	-1.82E-04	-12.8938	1.38E-08
152.04688	-0.32486	-3.28E-05	1138.13324	-1.84E-04	-13.11028	1.40E-08
152.10029	-0.32596	-3.29E-05	1138.09586	-1.86E-04	-13.74053	1.47E-08
152.15369	-0.327	-3.29E-05	1137.75672	-1.88E-04	-10.68348	1.14E-08
152.2071	-0.32806	-3.27E-05	1137.36154	-1.89E-04	-10.36792	1.11E-08
152.26051	-0.32913	-3.29E-05	1137.95138	-1.91E-04	-13.57534	1.45E-08
152.31391	-0.3302	-3.29E-05	1138.50003	-1.93E-04	-13.95638	1.49E-08
152.36732	-0.33127	-3.29E-05	1138.39857	-1.95E-04	-13.67549	1.46E-08
152.42072	-0.33234	-3.31E-05	1138.367	-1.96E-04	-16.64583	1.78E-08
152.47413	-0.3334	-3.30E-05	1138.57527	-1.98E-04	-13.4088	1.43E-08
152.52754	-0.33447	-3.30E-05	1138.80052	-2.00E-04	-12.03917	1.29E-08
152.58094	-0.33554	-3.31E-05	1139.05685	-2.02E-04	-13.8873	1.48E-08
152.63435	-0.33661	-3.30E-05	1139.14124	-2.03E-04	-10.83874	1.16E-08
152.68775	-0.33768	-3.31E-05	1139.03977	-2.05E-04	-11.40279	1.22E-08
152.74116	-0.33878	-3.31E-05	1138.8961	-2.07E-04	-14.66692	1.57E-08
152.79457	-0.33981	-3.31E-05	1138.72521	-2.09E-04	-13.5934	1.45E-08
152.84797	-0.34088	-3.31E-05	1138.69964	-2.10E-04	-14.89758	1.59E-08
152.90138	-0.34198	-3.32E-05	1138.72634	-2.12E-04	-11.88359	1.27E-08
152.95478	-0.34305	-3.31E-05	1138.64705	-2.14E-04	-18.23012	1.95E-08
153.00819	-0.34409	-3.32E-05	1138.55093	-2.16E-04	-13.75354	1.47E-08
153.0616	-0.34515	-3.33E-05	1138.17979	-2.18E-04	-15.20349	1.62E-08
153.115	-0.34622	-3.33E-05	1137.90599	-2.19E-04	-16.15192	1.73E-08
153.16841	-0.34729	-3.33E-05	1138.38127	-2.21E-04	-14.55105	1.55E-08
153.22181	-0.34839	-3.33E-05	1138.82382	-2.23E-04	-13.75025	1.47E-08
153.27522	-0.34943	-3.34E-05	1139.1656	-2.25E-04	-15.21541	1.63E-08
153.32863	-0.35052	-3.38E-05	1139.42379	-2.26E-04	-18.36451	1.96E-08
153.38203	-0.35159	-3.35E-05	1139.54127	-2.28E-04	-16.10355	1.72E-08
153.43544	-0.3526	-3.26E-05	1139.77895	-2.30E-04	-17.18623	1.84E-08
153.48884	-0.35367	-3.34E-05	1140.13675	-2.32E-04	-16.62955	1.78E-08
153.54225	-0.35477	-3.35E-05	1140.66547	-2.34E-04	-15.39322	1.64E-08
153.59566	-0.35583	-3.35E-05	1141.29562	-2.35E-04	-18.25393	1.95E-08
153.64906	-0.3569	-3.36E-05	1141.11534	-2.37E-04	-13.65668	1.46E-08
153.70247	-0.35797	-3.37E-05	1140.6721	-2.39E-04	-19.055	2.04E-08
153.75587	-0.35904	-3.36E-05	1140.2854	-2.41E-04	-13.51943	1.44E-08
153.80928	-0.36011	-3.38E-05	1139.91222	-2.43E-04	-14.6275	1.56E-08
153.86269	-0.36118	-3.38E-05	1140.13651	-2.44E-04	-13.85741	1.48E-08
153.91609	-0.36224	-3.37E-05	1140.34174	-2.46E-04	-13.7222	1.47E-08
153.9695	-0.36334	-3.39E-05	1140.42718	-2.48E-04	-16.12976	1.72E-08
154.0229	-0.36441	-3.39E-05	1140.32455	-2.50E-04	-18.49191	1.97E-08
154.07631	-0.36548	-3.38E-05	1139.69974	-2.52E-04	-15.66581	1.67E-08
154.12972	-0.36655	-3.40E-05	1139.32	-2.53E-04	-17.39607	1.86E-08
154.18312	-0.36758	-3.40E-05	1139.32	-2.55E-04	-15.685	1.68E-08
154.23653	-0.36865	-3.40E-05	1139.33388	-2.57E-04	-18.32261	1.96E-08
154.28993	-0.36975	-3.41E-05	1139.36058	-2.59E-04	-23.29509	2.49E-08
154.34334	-0.37079	-3.41E-05	1139.42184	-2.61E-04	-14.91023	1.59E-08
154.39675	-0.37189	-3.41E-05	1139.50194	-2.62E-04	-19.03795	2.03E-08
154.45015	-0.37296	-3.42E-05	1139.27181	-2.64E-04	-16.99835	1.82E-08
154.50356	-0.37402	-3.43E-05	1138.95139	-2.66E-04	-16.8181	1.80E-08
154.55696	-0.37506	-3.42E-05	1138.85256	-2.68E-04	-19.93261	2.13E-08
154.61037	-0.37616	-3.44E-05	1138.7907	-2.70E-04	-16.26287	1.74E-08
154.66378	-0.3772	-3.42E-05	1139.15384	-2.72E-04	-19.7641	2.11E-08
154.71718	-0.3783	-3.44E-05	1139.49855	-2.73E-04	-20.23992	2.16E-08
154.77059	-0.37936	-3.45E-05	1139.7442	-2.75E-04	-18.68622	2.00E-08
154.82399	-0.38043	-3.45E-05	1139.88204	-2.77E-04	-22.71108	2.43E-08
154.8774	-0.3815	-3.45E-05	1139.74853	-2.79E-04	-25.08987	2.68E-08
154.93081	-0.3826	-3.45E-05	1139.70739	-2.81E-04	-20.28092	2.17E-08
154.98421	-0.38364	-3.46E-05	1139.79817	-2.83E-04	-20.3908	2.18E-08
155.03762	-0.3847	-3.46E-05	1139.80832	-2.85E-04	-18.35808	1.96E-08
155.09102	-0.38577	-3.47E-05	1139.74958	-2.86E-04	-18.89553	2.02E-08
155.14443	-0.38684	-3.47E-05	1139.62319	-2.88E-04	-21.04264	2.25E-08
155.19784	-0.38791	-3.48E-05	1139.46298	-2.90E-04	-18.63117	1.99E-08
155.25124	-0.38898	-3.48E-05	1139.32398	-2.92E-04	-19.8075	2.12E-08
155.30465	-0.39008	-3.54E-05	1139.19047	-2.94E-04	-15.83816	1.69E-08
155.35805	-0.39114	-3.50E-05	1139.27351	-2.96E-04	-15.35885	1.64E-08
155.41146	-0.39218	-3.44E-05	1139.38518	-2.98E-04	-21.16565	2.26E-08
155.46487	-0.39325	-3.50E-05	1139.69492	-2.99E-04	-21.21103	2.27E-08
155.51827	-0.39432	-3.50E-05	1139.9811	-3.01E-04	-18.74398	2.00E-08
155.57168	-0.39542	-3.52E-05	1140.15733	-3.03E-04	-24.60956	2.63E-08
155.62508	-0.39645	-3.53E-05	1140.24105	-3.05E-04	-18.45654	1.97E-08
155.67849	-0.39755	-3.52E-05	1140.11288	-3.07E-04	-21.07364	2.25E-08
155.7319	-0.39859	-3.54E-05	1139.92712	-3.09E-04	-30.05349	3.21E-08
155.7853	-0.39969	-3.54E-05	1139.66545	-3.11E-04	-25.30813	2.70E-08
155.83871	-0.40076	-3.54E-05	1139.56194	-3.13E-04	-22.33413	2.39E-08
155.89211	-0.40182	-3.55E-05	1139.5833	-3.15E-04	-24.56975	2.62E-08
155.94552	-0.40286	-3.55E-05	1139.39577	-3.16E-04	-24.23686	2.59E-08
155.99893	-0.40396	-3.56E-05	1139.11273	-3.18E-04	-26.65961	2.85E-08
156.05233	-0.40503	-3.57E-05	1138.94702	-3.20E-04	-25.13953	2.68E-08
156.10574	-0.4061	-3.56E-05	1138.80817	-3.22E-04	-20.62508	2.20E-08
156.15914	-0.40714	-3.57E-05	1138.9156	-3.24E-04	-21.15312	2.26E-08
156.21255	-0.4082	-3.59E-05	1139.04538	-3.26E-04	-22.71701	2.43E-08
156.26596	-0.40927	-3.58E-05	1139.26967	-3.28E-04	-24.65577	2.63E-08
156.31936	-0.41037	-3.59E-05	1139.45942	-3.30E-04	-24.38125	2.60E-08
156.37277	-0.41144	-3.60E-05	1139.50748	-3.32E-04	-24.98292	2.67E-08
156.42617	-0.41248	-3.60E-05	1139.67647	-3.34E-04	-26.89547	2.87E-08
156.47958	-0.41357	-3.61E-05	1140.09835	-3.36E-04	-22.16875	2.37E-08
156.53299	-0.41461	-3.61E-05	1140.30351	-3.37E-04	-23.20659	2.48E-08
156.58639	-0.41571	-3.63E-05	1140.24477	-3.39E-04	-27.32777	2.92E-08
156.6398	-0.41678	-3.62E-05	1140.18294	-3.41E-04	-27.9618	2.99E-08
156.6932	-0.41785	-3.64E-05	1140.11885	-3.43E-04	-26.55336	2.84E-08
156.74661	-0.41891	-3.64E-05	1140.11885	-3.45E-04	-23.20265	2.48E-08
156.80002	-0.41998	-3.65E-05	1140.14555	-3.47E-04	-22.6966	2.42E-08
156.85342	-0.42105	-3.65E-05	1140.28794	-3.49E-04	-26.21811	2.80E-08
156.90683	-0.42209	-3.65E-05	1140.45349	-3.51E-04	-27.20207	2.91E-08
156.96023	-0.42319	-3.66E-05	1140.23939	-3.53E-04	-25.15446	2.69E-08
157.01364	-0.42426	-3.67E-05	1140.07283	-3.55E-04	-25.20999	2.69E-08
157.06705	-0.42532	-3.67E-05	1140.5588	-3.57E-04	-27.30439	2.92E-08
157.12045	-0.42639	-3.68E-05	1140.94576	-3.59E-04	-31.48413	3.36E-08
157.17386	-0.42746	-3.69E-05	1140.97246	-3.61E-04	-27.75382	2.96E-08
157.22726	-0.42853	-3.73E-05	1140.93138	-3.63E-04	-32.39614	3.46E-08
157.28067	-0.42963	-3.71E-05	1140.76049	-3.65E-04	-28.19158	3.01E-08
157.33408	-0.43066	-3.66E-05	1140.52176	-3.67E-04	-28.09282	3.00E-08
157.38748	-0.43173	-3.70E-05	1140.20669	-3.69E-04	-27.44485	2.93E-08
157.44089	-0.4328	-3.72E-05	1139.98421	-3.71E-04	-28.64995	3.06E-08
157.49429	-0.43387	-3.72E-05	1139.824	-3.73E-04	-29.99055	3.20E-08
157.5477	-0.43494	-3.73E-05	1139.53983	-3.75E-04	-31.6572	3.38E-08
157.60111	-0.43604	-3.73E-05	1139.20874	-3.77E-04	-27.3268	2.92E-08
157.65451	-0.43707	-3.74E-05	1139.19643	-3.79E-04	-28.68823	3.06E-08
157.70792	-0.43817	-3.76E-05	1139.23916	-3.81E-04	-32.52853	3.47E-08
157.76132	-0.43924	-3.76E-05	1139.39181	-3.83E-04	-30.88889	3.30E-08
157.81473	-0.44028	-3.76E-05	1139.52597	-3.85E-04	-32.21596	3.44E-08
157.86814	-0.44138	-3.76E-05	1139.48859	-3.87E-04	-31.18591	3.33E-08
157.92154	-0.44244	-3.77E-05	1139.45247	-3.89E-04	-29.50787	3.15E-08
157.97495	-0.44351	-3.78E-05	1139.42042	-3.91E-04	-30.88136	3.30E-08
158.02835	-0.44458	-3.79E-05	1139.43485	-3.93E-04	-29.08224	3.11E-08
158.08176	-0.44565	-3.79E-05	1139.53098	-3.95E-04	-37.76982	4.03E-08
158.13517	-0.44669	-3.80E-05	1139.75795	-3.97E-04	-32.95566	3.52E-08
158.18857	-0.44778	-3.81E-05	1140.12109	-3.99E-04	-32.24059	3.44E-08
158.24198	-0.44885	-3.82E-05	1140.14129	-4.01E-04	-34.05204	3.64E-08
158.29538	-0.44992	-3.82E-05	1139.94904	-4.03E-04	-36.78046	3.93E-08
158.34879	-0.45099	-3.82E-05	1139.98354	-4.05E-04	-32.64842	3.49E-08
158.4022	-0.45206	-3.84E-05	1140.09569	-4.07E-04	-35.63836	3.81E-08
158.4556	-0.45313	-3.84E-05	1140.23578	-4.09E-04	-30.81385	3.29E-08
158.50901	-0.45419	-3.85E-05	1140.37997	-4.11E-04	-32.30699	3.45E-08
158.56241	-0.45526	-3.85E-05	1140.39068	-4.13E-04	-40.70675	4.35E-08
158.61582	-0.45633	-3.87E-05	1140.33476	-4.15E-04	-36.56287	3.90E-08
158.66923	-0.4574	-3.87E-05	1139.82209	-4.17E-04	-35.70215	3.81E-08
158.72263	-0.45847	-3.88E-05	1139.55425	-4.19E-04	-37.92322	4.05E-08
158.77604	-0.45953	-3.88E-05	1140.00284	-4.22E-04	-36.2626	3.87E-08
158.82944	-0.4606	-3.89E-05	1140.42693	-4.24E-04	-37.35485	3.99E-08
158.88285	-0.46167	-3.90E-05	1140.81144	-4.26E-04	-34.16341	3.65E-08
158.93626	-0.46274	-3.91E-05	1140.90203	-4.28E-04	-35.68835	3.81E-08
158.98966	-0.46381	-3.91E-05	1140.70978	-4.30E-04	-34.21157	3.65E-08
159.04307	-0.4649	-3.92E-05	1140.56516	-4.32E-04	-34.62833	3.70E-08
159.09647	-0.46594	-3.93E-05	1140.44767	-4.34E-04	-39.22008	4.19E-08
159.14988	-0.46704	-3.94E-05	1140.46491	-4.36E-04	-36.58601	3.91E-08
159.20329	-0.46811	-4.00E-05	1140.52365	-4.38E-04	-37.07596	3.96E-08
159.25669	-0.46915	-3.97E-05	1140.23469	-4.40E-04	-36.79141	3.93E-08
159.3101	-0.47021	-3.88E-05	1139.90235	-4.43E-04	-41.43903	4.43E-08
159.3635	-0.47128	-3.95E-05	1139.50717	-4.45E-04	-38.00879	4.06E-08
159.41691	-0.47235	-3.97E-05	1139.19352	-4.47E-04	-35.32691	3.77E-08
159.47032	-0.47342	-4.00E-05	1139.35373	-4.49E-04	-36.52055	3.90E-08
159.52372	-0.47449	-3.99E-05	1139.42313	-4.51E-04	-38.22134	4.08E-08
159.57713	-0.47556	-4.00E-05	1139.25224	-4.53E-04	-36.90021	3.94E-08
159.63053	-0.47662	-4.01E-05	1139.22079	-4.55E-04	-40.09755	4.28E-08
159.68394	-0.47769	-4.02E-05	1139.39702	-4.57E-04	-43.82009	4.68E-08
159.73735	-0.47876	-4.03E-05	1139.53652	-4.60E-04	-42.90156	4.58E-08
159.79075	-0.47983	-4.04E-05	1139.64332	-4.62E-04	-41.79593	4.46E-08
159.84416	-0.4809	-4.04E-05	1139.5713	-4.64E-04	-39.91724	4.26E-08
159.89756	-0.48196	-4.05E-05	1139.40575	-4.66E-04	-42.54944	4.54E-08
159.95097	-0.48306	-4.06E-05	1139.39093	-4.68E-04	-36.94895	3.95E-08
160.00438	-0.4841	-4.08E-05	1139.41764	-4.70E-04	-41.0934	4.39E-08
160.05778	-0.48517	-4.07E-05	1139.60983	-4.73E-04	-43.34182	4.63E-08
160.11119	-0.48624	-4.09E-05	1139.81935	-4.75E-04	-41.7224	4.46E-08
160.16459	-0.4873	-4.11E-05	1140.05967	-4.77E-04	-40.51241	4.33E-08
160.218	-0.48837	-4.10E-05	1140.29287	-4.79E-04	-40.94751	4.37E-08
160.27141	-0.48947	-4.13E-05	1140.49046	-4.81E-04	-41.53488	4.44E-08
160.32481	-0.49054	-4.13E-05	1140.62529	-4.84E-04	-44.37206	4.74E-08
160.37822	-0.49158	-4.14E-05	1140.60927	-4.86E-04	-44.94731	4.80E-08
160.43162	-0.49268	-4.16E-05	1140.49877	-4.88E-04	-45.28839	4.84E-08
160.48503	-0.49371	-4.16E-05	1140.25845	-4.90E-04	-47.12733	5.03E-08
160.53844	-0.49481	-4.17E-05	1140.15	-4.92E-04	-45.45834	4.85E-08
160.59184	-0.49588	-4.19E-05	1140.15	-4.95E-04	-42.62699	4.55E-08
160.64525	-0.49695	-4.20E-05	1139.96946	-4.97E-04	-40.56723	4.33E-08
160.69865	-0.49802	-4.20E-05	1139.70244	-4.99E-04	-39.6586	4.24E-08
160.75206	-0.49908	-4.21E-05	1139.77874	-5.01E-04	-48.92063	5.22E-08
160.80547	-0.49957	-4.22E-05	1139.93895	-5.04E-04	-47.48129	5.07E-08
160.85887	-0.50079	-4.23E-05	1140.24832	-5.06E-04	-46.53758	4.97E-08
160.91228	-0.50171	-4.25E-05	1140.56593	-5.08E-04	-46.37364	4.95E-08
160.96568	-0.50293	-4.26E-05	1140.83828	-5.10E-04	-49.30389	5.27E-08
161.01909	-0.50385	-4.27E-05	1141.01234	-5.13E-04	-48.08537	5.14E-08
161.0725	-0.50507	-4.28E-05	1140.75601	-5.15E-04	-45.72163	4.88E-08
161.1259	-0.50629	-4.35E-05	1140.59841	-5.17E-04	-47.90206	5.12E-08
161.17931	-0.5072	-4.32E-05	1140.65715	-5.20E-04	-44.83454	4.79E-08
161.23271	-0.50842	-4.33E-05	1140.73708	-5.22E-04	-51.3943	5.49E-08
161.28612	-0.50934	-4.19E-05	1140.84389	-5.24E-04	-50.26455	5.37E-08
161.33953	-0.51025	-4.30E-05	1140.66543	-5.27E-04	-47.43495	5.07E-08
161.39293	-0.51147	-4.35E-05	1140.27025	-5.29E-04	-50.88929	5.43E-08
161.44634	-0.5127	-4.36E-05	1140.1017	-5.31E-04	-48.43801	5.17E-08
161.49974	-0.51361	-4.38E-05	1140.03228	-5.34E-04	-51.2532	5.47E-08
161.55315	-0.51453	-4.40E-05	1140.13429	-5.36E-04	-53.49277	5.71E-08
161.60656	-0.51575	-4.40E-05	1140.27314	-5.38E-04	-49.59721	5.30E-08
161.65996	-0.51697	-4.42E-05	1140.20893	-5.41E-04	-48.10777	5.14E-08
161.71337	-0.51788	-4.44E-05	1140.1275	-5.43E-04	-54.17183	5.79E-08
161.76677	-0.5188	-4.44E-05	1139.96729	-5.45E-04	-50.58246	5.40E-08
161.82018	-0.52002	-4.46E-05	1139.85646	-5.48E-04	-46.9165	5.01E-08
161.87359	-0.52094	-4.47E-05	1139.93656	-5.50E-04	-52.94557	5.65E-08
161.92699	-0.52216	-4.48E-05	1139.92244	-5.52E-04	-54.38629	5.81E-08
161.9804	-0.52307	-4.49E-05	1139.71951	-5.55E-04	-54.55211	5.83E-08
162.0338	-0.52429	-4.52E-05	1139.62967	-5.57E-04	-50.8403	5.43E-08
162.08721	-0.52521	-4.53E-05	1139.67239	-5.60E-04	-56.94809	6.08E-08
162.14062	-0.52643	-4.54E-05	1139.69	-5.62E-04	-53.23997	5.69E-08
162.19402	-0.52734	-4.55E-05	1139.69	-5.65E-04	-53.69505	5.73E-08
162.24743	-0.52856	-4.56E-05	1139.72056	-5.67E-04	-54.94815	5.87E-08
162.30083	-0.52979	-4.59E-05	1139.76328	-5.69E-04	-56.36375	6.02E-08
162.35424	-0.5307	-4.61E-05	1139.90951	-5.72E-04	-55.27913	5.90E-08
162.40765	-0.53162	-4.61E-05	1140.07506	-5.74E-04	-56.66363	6.05E-08
162.46105	-0.53284	-4.62E-05	1140.14217	-5.77E-04	-56.50941	6.04E-08
162.51446	-0.53406	-4.65E-05	1140.20886	-5.79E-04	-55.38299	5.91E-08
162.56786	-0.53497	-4.65E-05	1140.29965	-5.82E-04	-59.57765	6.36E-08
162.62127	-0.53619	-4.68E-05	1140.36639	-5.84E-04	-53.52945	5.72E-08
162.67468	-0.53711	-4.69E-05	1140.35037	-5.87E-04	-55.79581	5.96E-08
162.72808	-0.53802	-4.70E-05	1140.40024	-5.89E-04	-63.11807	6.74E-08
162.78149	-0.53925	-4.72E-05	1140.57113	-5.92E-04	-61.74932	6.59E-08
162.83489	-0.54016	-4.74E-05	1140.55748	-5.94E-04	-63.78815	6.81E-08
162.8883	-0.54138	-4.75E-05	1140.34387	-5.97E-04	-58.64528	6.26E-08
162.94171	-0.5426	-4.77E-05	1140.29244	-5.99E-04	-59.16506	6.32E-08
162.99511	-0.54352	-4.78E-05	1140.34584	-6.02E-04	-61.39386	6.56E-08
163.04852	-0.54474	-4.80E-05	1140.43456	-6.05E-04	-61.22068	6.54E-08
163.10192	-0.54565	-4.87E-05	1140.53602	-6.07E-04	-60.12343	6.42E-08
163.15533	-0.54657	-4.86E-05	1140.55	-6.10E-04	-57.05511	6.09E-08
163.20874	-0.54779	-4.79E-05	1140.55	-6.12E-04	-63.43267	6.77E-08
163.26214	-0.54871	-4.85E-05	1140.24345	-6.15E-04	-60.12614	6.42E-08
163.31555	-0.54993	-4.88E-05	1139.98376	-6.18E-04	-59.93287	6.40E-08
163.36895	-0.55084	-4.90E-05	1140.10125	-6.20E-04	-57.28812	6.12E-08
163.42236	-0.55206	-4.93E-05	1140.19392	-6.23E-04	-63.08828	6.74E-08
163.47577	-0.55298	-4.94E-05	1140.20994	-6.25E-04	-66.41926	7.09E-08
163.52917	-0.5542	-4.95E-05	1140.22397	-6.28E-04	-62.66626	6.69E-08
163.58258	-0.55511	-4.98E-05	1140.23465	-6.31E-04	-63.79012	6.81E-08
163.63598	-0.55634	-5.00E-05	1140.36537	-6.33E-04	-63.76814	6.81E-08
163.68939	-0.55725	-5.00E-05	1140.61636	-6.36E-04	-61.92639	6.61E-08
163.7428	-0.55847	-5.04E-05	1141.01802	-6.39E-04	-63.51599	6.78E-08
163.7962	-0.55939	-5.05E-05	1141.50932	-6.41E-04	-63.52649	6.78E-08
163.84961	-0.56061	-5.06E-05	1141.5736	-6.44E-04	-70.10716	7.49E-08
163.90301	-0.56152	-5.09E-05	1141.49884	-6.47E-04	-67.57092	7.22E-08
163.95642	-0.56274	-5.09E-05	1141.49471	-6.50E-04	-66.54232	7.11E-08
164.00983	-0.56366	-5.12E-05	1141.49955	-6.52E-04	-69.23404	7.39E-08
164.06323	-0.56488	-5.14E-05	1141.45149	-6.55E-04	-68.37406	7.30E-08
164.11664	-0.5658	-5.16E-05	1141.35232	-6.58E-04	-68.48969	7.31E-08
164.17004	-0.56702	-5.18E-05	1140.93044	-6.61E-04	-65.53019	7.00E-08
164.22345	-0.56793	-5.20E-05	1140.50009	-6.63E-04	-66.07762	7.06E-08
164.27686	-0.56915	-5.21E-05	1140.04617	-6.66E-04	-65.62691	7.01E-08
164.33026	-0.57007	-5.24E-05	1140.00213	-6.69E-04	-69.51221	7.42E-08
164.38367	-0.57129	-5.26E-05	1140.5949	-6.72E-04	-64.64062	6.90E-08
164.43707	-0.5722	-5.26E-05	1140.89109	-6.75E-04	-70.32219	7.51E-08
164.49048	-0.57343	-5.30E-05	1140.91245	-6.77E-04	-72.1295	7.70E-08
164.54389	-0.57434	-5.32E-05	1141.065	-6.80E-04	-70.99135	7.58E-08
164.59729	-0.57556	-5.33E-05	1141.28929	-6.83E-04	-68.62606	7.33E-08
164.6507	-0.57648	-5.35E-05	1141.64998	-6.86E-04	-70.76177	7.56E-08
164.7041	-0.5777	-5.38E-05	1142.0505	-6.89E-04	-71.76144	7.66E-08
164.75751	-0.57861	-5.39E-05	1142.02261	-6.92E-04	-71.10899	7.59E-08
164.81092	-0.57983	-5.41E-05	1141.94523	-6.95E-04	-72.1842	7.71E-08
164.86432	-0.58075	-5.44E-05	1141.77968	-6.97E-04	-73.86511	7.89E-08
164.91773	-0.58197	-5.44E-05	1141.59661	-7.00E-04	-71.81082	7.67E-08
164.97113	-0.58319	-5.48E-05	1141.31891	-7.03E-04	-73.2362	7.82E-08
165.02454	-0.58411	-5.55E-05	1141.11697	-7.06E-04	-72.66649	7.76E-08
165.07795	-0.58533	-5.53E-05	1141.10629	-7.09E-04	-71.69635	7.66E-08
165.13135	-0.58624	-5.54E-05	1141.22735	-7.12E-04	-76.60198	8.18E-08
165.18476	-0.58746	-5.56E-05	1141.53709	-7.15E-04	-76.73108	8.19E-08
165.23816	-0.58838	-5.59E-05	1141.41251	-7.18E-04	-77.44358	8.27E-08
165.29157	-0.5896	-5.61E-05	1140.91586	-7.21E-04	-75.99277	8.12E-08
165.34498	-0.59052	-5.63E-05	1141.0061	-7.24E-04	-75.65156	8.08E-08
165.39838	-0.59174	-5.63E-05	1141.3906	-7.27E-04	-73.39625	7.84E-08
165.45179	-0.59265	-5.66E-05	1141.69882	-7.30E-04	-80.13937	8.56E-08
165.50519	-0.59387	-5.68E-05	1141.9872	-7.33E-04	-72.57069	7.75E-08
165.5586	-0.59479	-5.70E-05	1141.86738	-7.36E-04	-79.6281	8.50E-08
165.61201	-0.59601	-5.74E-05	1141.71277	-7.39E-04	-80.69287	8.62E-08
165.66541	-0.59692	-5.74E-05	1141.56324	-7.42E-04	-79.05768	8.44E-08
165.71882	-0.59814	-5.76E-05	1141.44751	-7.45E-04	-77.70909	8.30E-08
165.77222	-0.59906	-5.80E-05	1141.49023	-7.49E-04	-86.19131	9.21E-08
165.82563	-0.60028	-5.81E-05	1141.35481	-7.52E-04	-84.02841	8.97E-08
165.87904	-0.6012	-5.82E-05	1140.8101	-7.55E-04	-74.86137	8.00E-08
165.93244	-0.60242	-5.86E-05	1140.17338	-7.58E-04	-79.13061	8.45E-08
165.98585	-0.60333	-5.87E-05	1139.41506	-7.61E-04	-78.94963	8.43E-08
166.03925	-0.60455	-5.90E-05	1138.9876	-7.64E-04	-82.09516	8.77E-08
166.09266	-0.60547	-5.93E-05	1138.82205	-7.67E-04	-77.60073	8.29E-08
166.14607	-0.60669	-5.94E-05	1138.77	-7.71E-04	-86.44657	9.23E-08
166.19947	-0.6076	-5.96E-05	1138.77	-7.74E-04	-79.51834	8.49E-08
166.25288	-0.60883	-5.99E-05	1138.95236	-7.77E-04	-85.5789	9.14E-08
166.30628	-0.60974	-6.01E-05	1139.17665	-7.80E-04	-85.37551	9.12E-08
166.35969	-0.61096	-6.03E-05	1139.38588	-7.83E-04	-82.7682	8.84E-08
166.4131	-0.61188	-6.05E-05	1139.61882	-7.87E-04	-88.30232	9.43E-08
166.4665	-0.6131	-6.07E-05	1140.19023	-7.90E-04	-83.57521	8.93E-08
166.51991	-0.61401	-6.11E-05	1140.69382	-7.93E-04	-82.13633	8.77E-08
166.57331	-0.61523	-6.12E-05	1140.91812	-7.96E-04	-85.5139	9.13E-08
166.62672	-0.61615	-6.14E-05	1141.1131	-8.00E-04	-84.54702	9.03E-08
166.68013	-0.61737	-6.17E-05	1141.24661	-8.03E-04	-90.37853	9.65E-08
166.73353	-0.61829	-6.20E-05	1141.25508	-8.06E-04	-82.95287	8.86E-08
166.78694	-0.61951	-6.21E-05	1141.11089	-8.10E-04	-91.68106	9.79E-08
166.84034	-0.62042	-6.23E-05	1141.14873	-8.13E-04	-87.36649	9.33E-08
166.89375	-0.62164	-6.24E-05	1141.31962	-8.16E-04	-91.46977	9.77E-08
166.94716	-0.62256	-6.28E-05	1141.13276	-8.20E-04	-89.2151	9.53E-08
167.00056	-0.62378	-6.36E-05	1140.79632	-8.23E-04	-88.9584	9.50E-08
167.05397	-0.62469	-6.36E-05	1141.01567	-8.26E-04	-89.12795	9.52E-08
167.10737	-0.62561	-6.23E-05	1141.34677	-8.30E-04	-95.82785	1.02E-07
167.16078	-0.62683	-6.33E-05	1141.46767	-8.33E-04	-89.27869	9.53E-08
167.21419	-0.62775	-6.39E-05	1141.56112	-8.36E-04	-97.10553	1.04E-07
167.26759	-0.62897	-6.41E-05	1141.45966	-8.40E-04	-94.07507	1.00E-07
167.321	-0.62988	-6.45E-05	1141.3272	-8.43E-04	-98.18384	1.05E-07
167.3744	-0.6311	-6.45E-05	1141.08155	-8.47E-04	-98.32415	1.05E-07
167.42781	-0.63202	-6.48E-05	1141.07907	-8.50E-04	-93.26945	9.96E-08
167.48122	-0.63324	-6.51E-05	1141.54368	-8.54E-04	-94.69248	1.01E-07
167.53462	-0.63416	-6.53E-05	1141.8452	-8.57E-04	-94.65645	1.01E-07
167.58803	-0.63538	-6.54E-05	1141.96269	-8.61E-04	-92.1154	9.84E-08
167.64143	-0.63629	-6.58E-05	1142.00043	-8.64E-04	-93.26004	9.96E-08
167.69484	-0.63751	-6.60E-05	1141.98441	-8.68E-04	-96.26469	1.03E-07
167.74825	-0.63843	-6.63E-05	1141.85615	-8.71E-04	-95.88501	1.02E-07
167.80165	-0.63965	-6.64E-05	1141.68526	-8.75E-04	-96.52332	1.03E-07
167.85506	-0.64056	-6.66E-05	1141.87389	-8.78E-04	-102.60752	1.10E-07
167.90846	-0.64178	-6.70E-05	1142.12488	-8.82E-04	-98.95399	1.06E-07
167.96187	-0.6427	-6.72E-05	1141.53362	-8.86E-04	-97.38075	1.04E-07
168.01528	-0.64392	-6.74E-05	1140.97056	-8.89E-04	-102.55718	1.10E-07
168.06868	-0.64484	-6.76E-05	1140.78899	-8.93E-04	-104.10306	1.11E-07
168.12209	-0.64606	-6.78E-05	1140.58989	-8.96E-04	-99.36184	1.06E-07
168.17549	-0.64697	-6.81E-05	1140.33356	-9.00E-04	-98.20354	1.05E-07
168.2289	-0.64819	-6.83E-05	1140.2937	-9.04E-04	-105.31992	1.12E-07
168.28231	-0.64911	-6.86E-05	1140.63548	-9.07E-04	-107.21746	1.15E-07
168.33571	-0.65033	-6.88E-05	1140.76034	-9.11E-04	-104.46796	1.12E-07
168.38912	-0.65125	-6.89E-05	1140.65888	-9.15E-04	-102.791	1.10E-07
168.44252	-0.65247	-6.93E-05	1140.91647	-9.18E-04	-108.75496	1.16E-07
168.49593	-0.65338	-6.95E-05	1141.39709	-9.22E-04	-105.75841	1.13E-07
168.54934	-0.6546	-6.97E-05	1141.46833	-9.26E-04	-104.14578	1.11E-07
168.60274	-0.65552	-6.99E-05	1141.39891	-9.30E-04	-108.70076	1.16E-07
168.65615	-0.65674	-7.02E-05	1141.83225	-9.33E-04	-107.60366	1.15E-07
168.70955	-0.65765	-7.04E-05	1142.33958	-9.37E-04	-110.33845	1.18E-07
168.76296	-0.65887	-7.08E-05	1142.08922	-9.41E-04	-108.29836	1.16E-07
168.81637	-0.65979	-7.08E-05	1141.86391	-9.45E-04	-105.81077	1.13E-07
168.86977	-0.66101	-7.12E-05	1141.81585	-9.48E-04	-109.46009	1.17E-07
168.92318	-0.66223	-7.13E-05	1141.69046	-9.52E-04	-106.43334	1.14E-07
168.97658	-0.66315	-7.22E-05	1141.338	-9.56E-04	-113.82507	1.22E-07
169.02999	-0.66437	-7.20E-05	1141.15056	-9.60E-04	-111.13029	1.19E-07
169.0834	-0.66528	-7.03E-05	1141.23066	-9.64E-04	-112.02986	1.20E-07
169.1368	-0.6662	-7.16E-05	1141.13139	-9.68E-04	-106.82319	1.14E-07
169.19021	-0.66742	-7.21E-05	1140.85903	-9.71E-04	-110.85302	1.18E-07
169.24361	-0.66833	-7.26E-05	1140.87215	-9.75E-04	-118.31382	1.26E-07
169.29702	-0.66956	-7.28E-05	1141.04838	-9.79E-04	-114.35606	1.22E-07
169.35043	-0.67047	-7.31E-05	1140.9146	-9.83E-04	-114.64054	1.22E-07
169.40383	-0.67169	-7.35E-05	1140.68497	-9.87E-04	-112.87173	1.21E-07
169.45724	-0.67261	-7.36E-05	1140.85039	-9.91E-04	-114.26844	1.22E-07
169.51064	-0.67383	-7.38E-05	1141.061	-9.95E-04	-113.53212	1.21E-07
169.56405	-0.67474	-7.41E-05	1141.1144	-9.99E-04	-119.33897	1.27E-07
169.61746	-0.67596	-7.42E-05	1141.16546	-0.001	-122.39287	1.31E-07
169.67086	-0.67719	-7.46E-05	1141.20285	-0.00101	-119.07373	1.27E-07
169.72427	-0.6781	-7.48E-05	1141.26361	-0.00101	-120.69733	1.29E-07
169.77767	-0.67902	-7.49E-05	1141.38643	-0.00101	-121.83605	1.30E-07
169.83108	-0.68024	-7.51E-05	1141.54567	-0.00102	-119.72202	1.28E-07
169.88449	-0.68146	-7.53E-05	1141.75928	-0.00102	-123.90982	1.32E-07
169.93789	-0.68237	-7.56E-05	1141.8346	-0.00103	-118.81345	1.27E-07
169.9913	-0.68329	-7.59E-05	1141.78654	-0.00103	-121.18247	1.29E-07
170.0447	-0.68451	-7.61E-05	1141.58084	-0.00103	-124.39868	1.33E-07
170.09811	-0.68542	-7.64E-05	1141.29247	-0.00104	-119.0833	1.27E-07
170.15152	-0.68665	-7.65E-05	1141.1296	-0.00104	-123.97265	1.32E-07
170.20492	-0.68756	-7.68E-05	1141.00143	-0.00105	-125.00429	1.34E-07
170.25833	-0.68878	-7.71E-05	1140.77111	-0.00105	-125.19312	1.34E-07
170.31173	-0.69	-7.71E-05	1140.53223	-0.00106	-125.60334	1.34E-07
170.36514	-0.69092	-7.75E-05	1140.3293	-0.00106	-127.69093	1.36E-07
170.41855	-0.69214	-7.75E-05	1140.15823	-0.00106	-127.00704	1.36E-07
170.47195	-0.69305	-7.77E-05	1140.14755	-0.00107	-129.2112	1.38E-07
170.52536	-0.69427	-7.78E-05	1140.10869	-0.00107	-123.96756	1.32E-07
170.57876	-0.69519	-7.83E-05	1140.00188	-0.00108	-126.86506	1.35E-07
170.63217	-0.69641	-7.85E-05	1140.00289	-0.00108	-129.85797	1.39E-07
170.68558	-0.69733	-7.87E-05	1140.15242	-0.00108	-132.78744	1.42E-07
170.73898	-0.69855	-7.89E-05	1140.24049	-0.00109	-133.08503	1.42E-07
170.79239	-0.69946	-7.90E-05	1140.27787	-0.00109	-133.02261	1.42E-07
170.84579	-0.70068	-7.93E-05	1140.29721	-0.0011	-131.78255	1.41E-07
170.8992	-0.7016	-8.02E-05	1140.3079	-0.0011	-129.95766	1.39E-07
170.95261	-0.70251	-8.01E-05	1140.09989	-0.00111	-130.8376	1.40E-07
171.00601	-0.70374	-7.92E-05	1139.83821	-0.00111	-135.5947	1.45E-07
171.05942	-0.70465	-7.98E-05	1140.06346	-0.00111	-136.45523	1.46E-07
171.11282	-0.70587	-8.02E-05	1140.31988	-0.00112	-141.42256	1.51E-07
171.16623	-0.70679	-8.05E-05	1140.49077	-0.00112	-136.50935	1.46E-07
171.21964	-0.70801	-8.08E-05	1140.64583	-0.00113	-140.57056	1.50E-07
171.27304	-0.70892	-8.09E-05	1140.73128	-0.00113	-137.51089	1.47E-07
171.32645	-0.71014	-8.12E-05	1140.83676	-0.00114	-139.76234	1.49E-07
171.37985	-0.71106	-8.14E-05	1140.98629	-0.00114	-138.55906	1.48E-07
171.43326	-0.71228	-8.16E-05	1141.18283	-0.00114	-142.34351	1.52E-07
171.48667	-0.7132	-8.19E-05	1141.43917	-0.00115	-138.93387	1.48E-07
171.54007	-0.71442	-8.20E-05	1141.56819	-0.00115	-144.32026	1.54E-07
171.59348	-0.71533	-8.23E-05	1141.60023	-0.00116	-141.30123	1.51E-07
171.64688	-0.71655	-8.24E-05	1141.65454	-0.00116	-145.36996	1.55E-07
171.70029	-0.71747	-8.26E-05	1141.71863	-0.00117	-147.48093	1.58E-07
171.7537	-0.71869	-8.29E-05	1141.99355	-0.00117	-145.27053	1.55E-07
171.8071	-0.7196	-8.30E-05	1142.31396	-0.00118	-145.33264	1.55E-07
171.86051	-0.72083	-8.33E-05	1142.22854	-0.00118	-149.17359	1.59E-07
171.91391	-0.72174	-8.35E-05	1142.17257	-0.00118	-150.32806	1.61E-07
171.96732	-0.72296	-8.37E-05	1142.72262	-0.00119	-146.88726	1.57E-07
172.02073	-0.72388	-8.40E-05	1143.12828	-0.00119	-148.2034	1.58E-07
172.07413	-0.7251	-8.42E-05	1142.97341	-0.0012	-150.17838	1.60E-07
172.12754	-0.72601	-8.42E-05	1142.94453	-0.0012	-145.5717	1.55E-07
172.18094	-0.72723	-8.45E-05	1143.16882	-0.00121	-152.51524	1.63E-07
172.23435	-0.72815	-8.46E-05	1143.15497	-0.00121	-146.07885	1.56E-07
172.28776	-0.72937	-8.49E-05	1142.86125	-0.00122	-157.21224	1.68E-07
172.34116	-0.73029	-8.51E-05	1142.65847	-0.00122	-152.21283	1.63E-07
172.39457	-0.73151	-8.54E-05	1142.51962	-0.00122	-158.93414	1.70E-07
172.44797	-0.73242	-8.55E-05	1142.18233	-0.00123	-156.82998	1.67E-07
172.50138	-0.73364	-8.56E-05	1141.76579	-0.00123	-155.99313	1.67E-07
172.55479	-0.73456	-8.60E-05	1141.96082	-0.00124	-156.52446	1.67E-07
172.60819	-0.73578	-8.61E-05	1142.27056	-0.00124	-161.4252	1.72E-07
172.6616	-0.737	-8.64E-05	1142.08326	-0.00125	-162.80213	1.74E-07
172.715	-0.73792	-8.65E-05	1141.90984	-0.00125	-160.74794	1.72E-07
172.76841	-0.73883	-8.67E-05	1142.0113	-0.00126	-159.05937	1.70E-07
172.82182	-0.74005	-8.69E-05	1142.16669	-0.00126	-161.21937	1.72E-07
172.87522	-0.74127	-8.78E-05	1142.50847	-0.00127	-164.09921	1.75E-07
172.92863	-0.74219	-8.77E-05	1142.75067	-0.00127	-162.48768	1.74E-07
172.98203	-0.74341	-8.72E-05	1142.80941	-0.00128	-163.21213	1.74E-07
173.03544	-0.74432	-8.76E-05	1142.80161	-0.00128	-166.0254	1.77E-07
173.08885	-0.74554	-8.79E-05	1142.7215	-0.00129	-164.82559	1.76E-07
173.14225	-0.74646	-8.82E-05	1142.61872	-0.00129	-165.51646	1.77E-07
173.19566	-0.74768	-8.84E-05	1142.50123	-0.00129	-168.62873	1.80E-07
173.24906	-0.7486	-8.86E-05	1142.44648	-0.0013	-173.26478	1.85E-07
173.30247	-0.74982	-8.89E-05	1142.41443	-0.0013	-173.87278	1.86E-07
173.35588	-0.75073	-8.91E-05	1142.52503	-0.00131	-169.17961	1.81E-07
173.40928	-0.75195	-8.93E-05	1142.65854	-0.00131	-170.59706	1.82E-07
173.46269	-0.75287	-8.95E-05	1142.45401	-0.00132	-173.08785	1.85E-07
173.51609	-0.75409	-8.97E-05	1142.25507	-0.00132	-168.37088	1.80E-07
173.5695	-0.755	-9.00E-05	1142.1269	-0.00133	-177.38936	1.89E-07
173.62291	-0.75623	-9.01E-05	1141.97398	-0.00133	-172.01561	1.84E-07
173.67631	-0.75714	-9.03E-05	1141.74435	-0.00134	-175.81063	1.88E-07
173.72972	-0.75836	-9.04E-05	1141.61587	-0.00134	-179.79341	1.92E-07
173.78312	-0.75928	-9.08E-05	1141.65859	-0.00135	-174.44303	1.86E-07
173.83653	-0.7605	-9.09E-05	1141.44823	-0.00135	-176.44461	1.88E-07
173.88994	-0.76141	-9.12E-05	1140.98363	-0.00136	-180.7979	1.93E-07
173.94334	-0.76263	-9.13E-05	1140.72973	-0.00136	-176.70921	1.89E-07
173.99675	-0.76355	-9.16E-05	1140.60156	-0.00137	-177.97085	1.90E-07
174.05015	-0.76477	-9.19E-05	1140.56195	-0.00137	-182.769	1.95E-07
174.10356	-0.76569	-9.21E-05	1140.55127	-0.00138	-181.95307	1.94E-07
174.15697	-0.76691	-9.23E-05	1140.7947	-0.00138	-186.4571	1.99E-07
174.21037	-0.76782	-9.24E-05	1141.07322	-0.00139	-184.23852	1.97E-07
174.26378	-0.76904	-9.27E-05	1141.44704	-0.00139	-190.17049	2.03E-07
174.31718	-0.76996	-9.30E-05	1141.75401	-0.0014	-189.45081	2.02E-07
174.37059	-0.77118	-9.32E-05	1141.63653	-0.0014	-184.68853	1.97E-07
174.424	-0.77209	-9.34E-05	1141.56548	-0.00141	-191.10766	2.04E-07
174.4774	-0.77332	-9.36E-05	1141.62422	-0.00141	-197.06007	2.10E-07
174.53081	-0.77423	-9.39E-05	1141.70384	-0.00142	-193.97653	2.07E-07
174.58421	-0.77545	-9.42E-05	1141.81599	-0.00142	-191.88627	2.05E-07
174.63762	-0.77637	-9.45E-05	1141.85062	-0.00143	-190.27389	2.03E-07
174.69103	-0.77759	-9.45E-05	1141.81324	-0.00143	-193.77603	2.07E-07
174.74443	-0.7785	-9.47E-05	1141.41371	-0.00144	-195.216	2.08E-07
174.79784	-0.77972	-9.56E-05	1140.8156	-0.00144	-197.93244	2.11E-07
174.85124	-0.78064	-9.55E-05	1140.95255	-0.00145	-199.13466	2.13E-07
174.90465	-0.78156	-9.57E-05	1141.30501	-0.00145	-195.33435	2.09E-07
174.95806	-0.78278	-9.45E-05	1141.36405	-0.00146	-196.83399	2.10E-07
175.01146	-0.78369	-9.54E-05	1141.3909	-0.00146	-197.86232	2.11E-07
175.06487	-0.78491	-9.61E-05	1141.42294	-0.00147	-199.11379	2.13E-07
175.11827	-0.78583	-9.63E-05	1141.45083	-0.00147	-203.37501	2.17E-07
175.17168	-0.78705	-9.66E-05	1141.45617	-0.00148	-200.22154	2.14E-07
175.22509	-0.78827	-9.70E-05	1141.40256	-0.00148	-204.38593	2.18E-07
175.27849	-0.78918	-9.72E-05	1141.19963	-0.00149	-201.64936	2.15E-07
175.3319	-0.7901	-9.75E-05	1141.05808	-0.00149	-204.01361	2.18E-07
175.3853	-0.79132	-9.76E-05	1141.00467	-0.0015	-209.63411	2.24E-07
175.43871	-0.79224	-9.77E-05	1141.14088	-0.0015	-206.27241	2.20E-07
175.49212	-0.79346	-9.82E-05	1141.43994	-0.00151	-205.87571	2.20E-07
175.54552	-0.79468	-9.84E-05	1141.31613	-0.00151	-213.25839	2.28E-07
175.59893	-0.79559	-9.87E-05	1140.97969	-0.00152	-212.67838	2.27E-07
175.65233	-0.79651	-9.88E-05	1140.80838	-0.00152	-219.76294	2.35E-07
175.70574	-0.79773	-9.92E-05	1140.68022	-0.00153	-213.96826	2.29E-07
175.75915	-0.79865	-9.94E-05	1140.97962	-0.00154	-212.8445	2.27E-07
175.81255	-0.79987	-9.98E-05	1141.30357	-0.00154	-217.63921	2.32E-07
175.86596	-0.80078	-1.00E-04	1141.37833	-0.00155	-216.55008	2.31E-07
175.91936	-0.802	-1.00E-04	1141.38293	-0.00155	-219.61847	2.35E-07
175.97277	-0.80322	-1.00E-04	1141.05718	-0.00156	-222.90163	2.38E-07
176.02618	-0.80414	-1.01E-04	1140.94474	-0.00156	-218.70888	2.34E-07
176.07958	-0.80536	-1.01E-04	1141.3239	-0.00157	-218.83053	2.34E-07
176.13299	-0.80627	-1.01E-04	1141.54	-0.00157	-223.83594	2.39E-07
176.18639	-0.8075	-1.02E-04	1141.54	-0.00158	-225.0369	2.40E-07
176.2398	-0.80841	-1.02E-04	1141.71864	-0.00158	-224.58118	2.40E-07
176.29321	-0.80933	-1.02E-04	1142.03906	-0.00159	-232.18809	2.48E-07
176.34661	-0.81055	-1.02E-04	1142.11439	-0.00159	-230.14077	2.46E-07
176.40002	-0.81177	-1.03E-04	1142.07701	-0.0016	-229.66713	2.45E-07
176.45342	-0.81268	-1.03E-04	1142.13508	-0.00161	-231.3564	2.47E-07
176.50683	-0.8139	-1.03E-04	1142.21518	-0.00161	-233.95016	2.50E-07
176.56024	-0.81482	-1.03E-04	1142.14973	-0.00162	-236.08849	2.52E-07
176.61364	-0.81573	-1.04E-04	1142.05628	-0.00162	-232.52287	2.48E-07
176.66705	-0.81696	-1.04E-04	1141.70382	-0.00163	-236.77398	2.53E-07
176.72045	-0.81818	-1.04E-04	1141.41896	-0.00163	-238.26638	2.54E-07
176.77386	-0.81909	-1.05E-04	1141.41362	-0.00164	-236.98925	2.53E-07
176.82727	-0.82031	-1.05E-04	1141.37731	-0.00164	-239.51764	2.56E-07
176.88067	-0.82123	-1.04E-04	1141.27584	-0.00165	-242.20415	2.59E-07
176.93408	-0.82245	-1.05E-04	1141.28483	-0.00166	-245.06545	2.62E-07
176.98748	-0.82336	-1.06E-04	1141.42902	-0.00166	-249.07993	2.66E-07
177.04089	-0.82458	-1.06E-04	1141.72113	-0.00167	-244.43346	2.61E-07
177.0943	-0.8255	-1.06E-04	1142.12165	-0.00167	-246.4664	2.63E-07
177.1477	-0.82672	-1.07E-04	1142.46574	-0.00168	-249.63075	2.67E-07
177.20111	-0.82764	-1.07E-04	1142.78616	-0.00168	-247.58277	2.64E-07
177.25451	-0.82886	-1.07E-04	1142.69783	-0.00169	-251.39493	2.68E-07
177.30792	-0.82977	-1.07E-04	1142.52694	-0.0017	-245.82838	2.63E-07
177.36133	-0.83099	-1.08E-04	1142.74031	-0.0017	-251.47918	2.69E-07
177.41473	-0.83191	-1.08E-04	1142.96438	-0.00171	-253.79987	2.71E-07
177.46814	-0.83313	-1.08E-04	1143.12993	-0.00171	-253.99291	2.71E-07
177.52154	-0.83405	-1.09E-04	1143.19134	-0.00172	-260.4343	2.78E-07
177.57495	-0.83527	-1.09E-04	1142.87092	-0.00172	-260.17686	2.78E-07
177.62836	-0.83618	-1.09E-04	1142.63263	-0.00173	-263.73805	2.82E-07
177.68176	-0.8374	-1.10E-04	1142.55252	-0.00174	-264.38786	2.82E-07
177.73517	-0.83832	-1.10E-04	1142.70042	-0.00174	-263.94472	2.82E-07
177.78857	-0.83954	-1.10E-04	1143.10629	-0.00175	-269.10833	2.87E-07
177.84198	-0.84045	-1.10E-04	1143.14893	-0.00175	-269.44033	2.88E-07
177.89539	-0.84167	-1.11E-04	1142.94599	-0.00176	-271.96302	2.90E-07
177.94879	-0.84259	-1.11E-04	1142.54972	-0.00177	-274.99243	2.94E-07
178.0022	-0.84381	-1.11E-04	1142.07978	-0.00177	-274.23953	2.93E-07
178.0556	-0.84473	-1.12E-04	1142.05547	-0.00178	-272.86807	2.91E-07
178.10901	-0.84595	-1.12E-04	1142.10888	-0.00178	-270.07434	2.88E-07
178.16242	-0.84686	-1.12E-04	1142.12046	-0.00179	-274.87794	2.94E-07
178.21582	-0.84808	-1.13E-04	1142.10557	-0.0018	-277.06748	2.96E-07
178.26923	-0.849	-1.13E-04	1141.87593	-0.0018	-284.42794	3.04E-07
178.32263	-0.85022	-1.13E-04	1141.71623	-0.00181	-280.19152	2.99E-07
178.37604	-0.85114	-1.14E-04	1141.78566	-0.00181	-280.36832	2.99E-07
178.42945	-0.85236	-1.14E-04	1141.82807	-0.00182	-282.75867	3.02E-07
178.48285	-0.85327	-1.14E-04	1141.82273	-0.00183	-289.19838	3.09E-07
178.53626	-0.85449	-1.14E-04	1141.7417	-0.00183	-285.68552	3.05E-07
178.58966	-0.85541	-1.15E-04	1141.58149	-0.00184	-288.81595	3.08E-07
178.64307	-0.85663	-1.15E-04	1141.59897	-0.00184	-292.94049	3.13E-07
178.69648	-0.85754	-1.16E-04	1141.72714	-0.00185	-292.54047	3.12E-07
178.74988	-0.85876	-1.16E-04	1141.85134	-0.00186	-291.63478	3.11E-07
178.80329	-0.85968	-1.16E-04	1141.97416	-0.00186	-297.90934	3.18E-07
178.85669	-0.8606	-1.15E-04	1141.85975	-0.00187	-297.95767	3.18E-07
178.9101	-0.86182	-1.16E-04	1141.71022	-0.00188	-303.59133	3.24E-07
178.96351	-0.86304	-1.17E-04	1141.96596	-0.00188	-297.06881	3.17E-07
179.01691	-0.86395	-1.17E-04	1142.19673	-0.00189	-304.98081	3.26E-07
179.07032	-0.86517	-1.17E-04	1142.25013	-0.00189	-302.48706	3.23E-07
179.12372	-0.86609	-1.18E-04	1142.30218	-0.0019	-308.40275	3.29E-07
179.17713	-0.86731	-1.18E-04	1142.35024	-0.00191	-307.41474	3.28E-07
179.23054	-0.86823	-1.18E-04	1142.31085	-0.00191	-309.54663	3.31E-07
179.28394	-0.86945	-1.19E-04	1142.12928	-0.00192	-313.67647	3.35E-07
179.33735	-0.87036	-1.19E-04	1142.097	-0.00193	-317.06362	3.39E-07
179.39075	-0.87158	-1.19E-04	1142.20915	-0.00193	-318.96431	3.41E-07
179.44416	-0.8725	-1.19E-04	1142.3179	-0.00194	-314.11726	3.35E-07
179.49757	-0.87372	-1.20E-04	1142.42471	-0.00194	-316.08019	3.38E-07
179.55097	-0.87463	-1.20E-04	1142.33588	-0.00195	-319.91799	3.42E-07
179.60438	-0.87585	-1.20E-04	1142.18635	-0.00196	-321.64692	3.44E-07
179.65778	-0.87677	-1.21E-04	1142.17951	-0.00196	-317.75805	3.39E-07
179.71119	-0.87799	-1.21E-04	1142.18961	-0.00197	-327.44015	3.50E-07
179.7646	-0.87891	-1.21E-04	1142.16825	-0.00198	-326.85055	3.49E-07
179.818	-0.88013	-1.21E-04	1142.16865	-0.00198	-336.73703	3.60E-07
179.87141	-0.88104	-1.22E-04	1142.29682	-0.00199	-327.68711	3.50E-07
179.92481	-0.88226	-1.22E-04	1142.44539	-0.002	-333.29279	3.56E-07
179.97822	-0.88318	-1.22E-04	1142.64832	-0.002	-336.45663	3.59E-07
180.03163	-0.8844	-1.22E-04	1142.81704	-0.00201	-340.85543	3.64E-07
180.08503	-0.88531	-1.22E-04	1142.93453	-0.00202	-339.04207	3.62E-07
180.13844	-0.88654	-1.23E-04	1143.22961	-0.00202	-341.65708	3.65E-07
180.19184	-0.88745	-1.23E-04	1143.68353	-0.00203	-341.55201	3.65E-07
180.24525	-0.88867	-1.23E-04	1143.96598	-0.00204	-347.38317	3.71E-07
180.29866	-0.88959	-1.23E-04	1144.15823	-0.00204	-347.34458	3.71E-07
180.35206	-0.89081	-1.24E-04	1144.04952	-0.00205	-350.31336	3.74E-07
180.40547	-0.89172	-1.24E-04	1143.85727	-0.00206	-346.12481	3.70E-07
180.45887	-0.89294	-1.24E-04	1143.5435	-0.00206	-354.39809	3.78E-07
180.51228	-0.89386	-1.24E-04	1143.23643	-0.00207	-352.33188	3.76E-07
180.56569	-0.89508	-1.25E-04	1143.40732	-0.00208	-353.84803	3.78E-07
180.61909	-0.896	-1.25E-04	1143.43187	-0.00208	-358.46287	3.83E-07
180.6725	-0.89722	-1.26E-04	1142.71627	-0.00209	-357.61592	3.82E-07
180.7259	-0.89813	-1.26E-04	1142.06316	-0.0021	-361.81483	3.86E-07
180.77931	-0.89935	-1.25E-04	1141.56117	-0.0021	-365.88687	3.91E-07
180.83272	-0.90027	-1.25E-04	1141.20047	-0.00211	-363.40952	3.88E-07
180.88612	-0.90149	-1.26E-04	1141.03493	-0.00212	-369.79414	3.95E-07
180.93953	-0.9024	-1.26E-04	1140.88107	-0.00212	-373.67618	3.99E-07
180.99293	-0.90363	-1.26E-04	1140.73688	-0.00213	-368.14358	3.93E-07
181.04634	-0.90454	-1.26E-04	1140.88101	-0.00214	-373.63649	3.99E-07
181.09975	-0.90576	-1.26E-04	1141.16405	-0.00214	-376.0644	4.02E-07
181.15315	-0.90668	-1.27E-04	1141.19429	-0.00215	-379.52036	4.05E-07
181.20656	-0.9079	-1.27E-04	1141.16225	-0.00216	-381.54504	4.07E-07
181.25996	-0.90881	-1.27E-04	1141.44798	-0.00216	-378.57545	4.04E-07
181.31337	-0.91003	-1.27E-04	1141.74916	-0.00217	-380.57766	4.06E-07
181.36678	-0.91095	-1.27E-04	1141.90937	-0.00218	-387.97005	4.14E-07
181.42018	-0.91217	-1.27E-04	1142.03606	-0.00218	-388.0859	4.14E-07
181.47359	-0.91309	-1.28E-04	1142.01469	-0.00219	-385.73765	4.12E-07
181.52699	-0.91431	-1.28E-04	1141.95833	-0.0022	-392.46903	4.19E-07
181.5804	-0.91522	-1.28E-04	1141.82483	-0.0022	-390.72238	4.17E-07
181.63381	-0.91644	-1.28E-04	1141.64203	-0.00221	-394.98618	4.22E-07
181.68721	-0.91736	-1.28E-04	1141.39637	-0.00222	-393.17267	4.20E-07
181.74062	-0.91858	-1.28E-04	1141.22944	-0.00222	-400.07562	4.27E-07
181.79402	-0.91949	-1.28E-04	1141.12264	-0.00223	-401.14249	4.28E-07
181.84743	-0.92072	-1.28E-04	1141.24575	-0.00224	-405.98485	4.34E-07
181.90084	-0.92163	-1.29E-04	1141.47004	-0.00224	-399.96493	4.27E-07
181.95424	-0.92285	-1.29E-04	1141.38711	-0.00225	-407.78718	4.36E-07
182.00765	-0.92377	-1.29E-04	1141.23758	-0.00226	-409.98022	4.38E-07
182.06105	-0.92499	-1.29E-04	1141.02215	-0.00227	-411.83474	4.40E-07
182.11446	-0.9259	-1.29E-04	1140.86222	-0.00227	-412.0006	4.40E-07
182.16787	-0.92712	-1.29E-04	1141.41227	-0.00228	-415.67943	4.44E-07
182.22127	-0.92804	-1.29E-04	1141.862	-0.00229	-418.83488	4.47E-07
182.27468	-0.92926	-1.29E-04	1141.92074	-0.00229	-417.74515	4.46E-07
182.32808	-0.93018	-1.29E-04	1141.91395	-0.0023	-421.83598	4.51E-07
182.38149	-0.9314	-1.29E-04	1141.7751	-0.00231	-420.60653	4.49E-07
182.4349	-0.93231	-1.29E-04	1141.79807	-0.00231	-426.0058	4.55E-07
182.4883	-0.93353	-1.29E-04	1142.01168	-0.00232	-430.13512	4.59E-07
182.54171	-0.93445	-1.30E-04	1141.9935	-0.00233	-432.67483	4.62E-07
182.59511	-0.93567	-1.30E-04	1141.81193	-0.00233	-428.68811	4.58E-07
182.64852	-0.93658	-1.30E-04	1141.52742	-0.00234	-434.16308	4.64E-07
182.70193	-0.9375	-1.30E-04	1141.20166	-0.00235	-436.25735	4.66E-07
182.75533	-0.93872	-1.30E-04	1141.20841	-0.00236	-439.22686	4.69E-07
182.80874	-0.93964	-1.30E-04	1141.27784	-0.00236	-442.27944	4.72E-07
182.86214	-0.94086	-1.30E-04	1141.35761	-0.00237	-442.18178	4.72E-07
182.91555	-0.94177	-1.30E-04	1141.43566	-0.00238	-447.10259	4.78E-07
182.96896	-0.94299	-1.30E-04	1141.4944	-0.00238	-448.65146	4.79E-07
183.02236	-0.94391	-1.30E-04	1141.60214	-0.00239	-454.35647	4.85E-07
183.07577	-0.94513	-1.30E-04	1141.87983	-0.0024	-451.37689	4.82E-07
183.12917	-0.94604	-1.30E-04	1142.17253	-0.0024	-454.7244	4.86E-07
183.18258	-0.94727	-1.30E-04	1142.49295	-0.00241	-456.38256	4.87E-07
183.23599	-0.94818	-1.30E-04	1142.68812	-0.00242	-465.8248	4.98E-07
183.28939	-0.94940	-1.31E-04	1142.74686	-0.00242	-455.51438	4.86E-07
183.3428	-0.95032	-1.31E-04	1142.78295	-0.00243	-461.5018	4.93E-07
183.3962	-0.94940	-5.37E-05	1142.80431	-0.00243	-461.85137	4.93E-07
183.44961	-0.94818	-1.25E-05	1142.53187	-0.00244	-458.01061	4.89E-07

183.50302	-0.94727	1.08E-05	1142.15271	-0.00243	-463.07891	4.95E-07
183.55642	-0.94604	2.52E-05	1142.35748	-0.00243	-469.52868	5.01E-07
183.60983	-0.94513	3.44E-05	1142.65654	-0.00243	-464.59287	4.96E-07
183.66323	-0.94391	4.07E-05	1142.26412	-0.00243	-464.97159	4.97E-07
183.71664	-0.94299	4.54E-05	1141.88834	-0.00243	-465.02396	4.97E-07
183.77005	-0.94177	4.90E-05	1141.70143	-0.00242	-463.52009	4.95E-07
183.82345	-0.94086	5.20E-05	1141.5626	-0.00242	-467.05845	4.99E-07
183.87686	-0.93964	5.47E-05	1141.57328	-0.00242	-466.84939	4.99E-07
183.93026	-0.93872	5.70E-05	1141.68494	-0.00242	-466.15839	4.98E-07
183.98367	-0.9375	5.87E-05	1141.96797	-0.00241	-466.65873	4.98E-07
184.03708	-0.93658	6.06E-05	1142.14459	-0.00241	-459.77337	4.91E-07
184.09048	-0.93567	6.30E-05	1142.21401	-0.00241	-462.6988	4.94E-07
184.14389	-0.93445	6.42E-05	1142.24	-0.0024	-466.74885	4.98E-07
184.19729	-0.93353	6.55E-05	1142.24	-0.0024	-461.04293	4.92E-07
184.2507	-0.93231	6.68E-05	1142.48935	-0.0024	-457.82051	4.89E-07
184.30411	-0.9314	6.78E-05	1142.82044	-0.00239	-460.93994	4.92E-07
184.35751	-0.93018	6.91E-05	1143.09512	-0.00239	-463.17812	4.95E-07
184.41092	-0.92926	7.03E-05	1143.36124	-0.00238	-457.247	4.88E-07
184.46432	-0.92804	7.11E-05	1143.5161	-0.00238	-460.44173	4.92E-07
184.51773	-0.92712	7.23E-05	1143.62252	-0.00238	-457.77369	4.89E-07
184.57114	-0.9259	7.33E-05	1143.41959	-0.00237	-452.81464	4.84E-07
184.62454	-0.92499	7.43E-05	1143.13804	-0.00237	-457.57983	4.89E-07
184.67795	-0.92377	7.52E-05	1142.63606	-0.00236	-457.76396	4.89E-07
184.73135	-0.92285	7.59E-05	1142.31958	-0.00236	-447.74268	4.78E-07
184.78476	-0.92163	7.67E-05	1142.29288	-0.00236	-454.93531	4.86E-07
184.83817	-0.92072	7.77E-05	1142.06433	-0.00235	-451.46257	4.82E-07
184.89157	-0.91949	7.85E-05	1141.64779	-0.00235	-448.61518	4.79E-07
184.94498	-0.91858	7.91E-05	1141.64816	-0.00234	-450.78292	4.81E-07
184.99838	-0.91736	7.99E-05	1141.87779	-0.00234	-446.17051	4.77E-07
185.05179	-0.91644	8.06E-05	1142.12806	-0.00234	-447.21998	4.78E-07
185.1052	-0.91522	8.12E-05	1142.38439	-0.00233	-447.62081	4.78E-07
185.1586	-0.91431	8.19E-05	1142.94355	-0.00233	-443.61329	4.74E-07
185.21201	-0.91309	8.24E-05	1143.52515	-0.00232	-443.13387	4.73E-07
185.26541	-0.91217	8.31E-05	1143.71206	-0.00232	-440.69395	4.71E-07
185.31882	-0.91095	8.38E-05	1143.8609	-0.00231	-444.43197	4.75E-07
185.37223	-0.91003	8.42E-05	1143.80215	-0.00231	-441.45549	4.71E-07
185.42563	-0.90881	8.48E-05	1143.63482	-0.0023	-444.22511	4.74E-07
185.47904	-0.9079	8.53E-05	1143.19157	-0.0023	-435.12966	4.65E-07
185.53244	-0.90668	8.58E-05	1142.86652	-0.0023	-438.77748	4.69E-07
185.58585	-0.90576	8.63E-05	1142.71166	-0.00229	-434.2586	4.64E-07
185.63926	-0.90454	8.70E-05	1142.49653	-0.00229	-433.16622	4.63E-07
185.69266	-0.90363	8.73E-05	1142.22951	-0.00228	-436.39316	4.66E-07
185.74607	-0.9024	8.78E-05	1142.00155	-0.00228	-432.47741	4.62E-07
185.79947	-0.90149	8.83E-05	1141.79328	-0.00227	-434.28742	4.64E-07
185.85288	-0.90027	8.86E-05	1142.14768	-0.00227	-434.28853	4.64E-07
185.90629	-0.89935	8.91E-05	1142.64966	-0.00226	-432.59358	4.62E-07
185.95969	-0.89813	8.88E-05	1142.53284	-0.00226	-430.19467	4.59E-07
186.0131	-0.89722	8.94E-05	1142.38232	-0.00225	-426.58404	4.56E-07
186.0665	-0.896	9.06E-05	1142.644	-0.00225	-425.22351	4.54E-07
186.11991	-0.89508	9.08E-05	1142.87491	-0.00224	-421.27136	4.50E-07
186.17332	-0.89386	9.10E-05	1142.96036	-0.00224	-423.58337	4.52E-07
186.22672	-0.89294	9.13E-05	1142.8926	-0.00223	-426.90781	4.56E-07
186.28013	-0.89172	9.16E-05	1142.47072	-0.00223	-420.4518	4.49E-07
186.33353	-0.89081	9.19E-05	1141.93188	-0.00222	-415.80001	4.44E-07
186.38694	-0.88959	9.23E-05	1141.23764	-0.00222	-418.63983	4.47E-07
186.44035	-0.88867	9.25E-05	1141.37608	-0.00221	-416.52658	4.45E-07
186.49375	-0.88745	9.27E-05	1142.17712	-0.00221	-412.58217	4.41E-07
186.54716	-0.88654	9.31E-05	1142.21804	-0.0022	-412.36919	4.40E-07
186.60056	-0.88531	9.33E-05	1141.9083	-0.0022	-417.56437	4.46E-07
186.65397	-0.8844	9.33E-05	1141.5032	-0.00219	-412.05196	4.40E-07
186.70738	-0.88318	9.38E-05	1141.07597	-0.00219	-409.96022	4.38E-07
186.76078	-0.88226	9.40E-05	1141.20548	-0.00218	-411.20122	4.39E-07
186.81419	-0.88104	9.42E-05	1141.40093	-0.00218	-407.80907	4.36E-07
186.86759	-0.88013	9.46E-05	1142.01507	-0.00217	-410.77542	4.39E-07
186.921	-0.87891	9.46E-05	1142.43433	-0.00217	-404.85091	4.32E-07
186.97441	-0.87799	9.49E-05	1142.04449	-0.00216	-405.40125	4.33E-07
187.02781	-0.87677	9.51E-05	1141.87272	-0.00216	-406.1916	4.34E-07
187.08122	-0.87585	9.52E-05	1142.1611	-0.00215	-402.43723	4.30E-07
187.13462	-0.87463	9.54E-05	1142.56936	-0.00215	-403.81631	4.31E-07
187.18803	-0.87372	9.54E-05	1143.12475	-0.00214	-402.62526	4.30E-07
187.24144	-0.8725	9.56E-05	1143.4031	-0.00214	-399.33895	4.26E-07
187.29484	-0.87158	9.59E-05	1143.47786	-0.00213	-395.63509	4.23E-07
187.34825	-0.87036	9.60E-05	1143.33085	-0.00213	-390.33695	4.17E-07
187.40165	-0.86945	9.62E-05	1143.09054	-0.00212	-395.13996	4.22E-07
187.45506	-0.86823	9.62E-05	1143.22758	-0.00212	-392.98626	4.20E-07
187.50847	-0.86731	9.64E-05	1143.44119	-0.00211	-391.80598	4.18E-07
187.56187	-0.86609	9.64E-05	1143.68552	-0.00211	-386.69	4.13E-07
187.61528	-0.86517	9.65E-05	1143.89665	-0.0021	-389.14287	4.16E-07
187.66868	-0.86395	9.66E-05	1143.74178	-0.0021	-387.37537	4.14E-07
187.72209	-0.86304	9.67E-05	1143.63255	-0.00209	-385.99125	4.12E-07
187.7755	-0.86182	9.68E-05	1143.69129	-0.00209	-385.84679	4.12E-07
187.8289	-0.8609	9.70E-05	1143.88848	-0.00208	-384.45603	4.11E-07
187.88231	-0.85968	9.59E-05	1144.35308	-0.00208	-380.74107	4.07E-07
187.93571	-0.85876	9.65E-05	1144.56997	-0.00207	-380.67028	4.07E-07
187.98912	-0.85754	9.67E-05	1144.50589	-0.00207	-379.31867	4.05E-07
188.04253	-0.85663	9.76E-05	1144.24129	-0.00206	-379.03982	4.05E-07
188.09593	-0.85541	9.74E-05	1143.84077	-0.00206	-378.13166	4.04E-07
188.14934	-0.85449	9.72E-05	1143.66046	-0.00205	-376.81515	4.02E-07
188.20274	-0.85327	9.72E-05	1143.56433	-0.00205	-376.37769	4.02E-07
188.25615	-0.85236	9.71E-05	1143.63633	-0.00204	-374.4824	4.00E-07
188.30956	-0.85114	9.72E-05	1143.7378	-0.00203	-376.02497	4.02E-07
188.36296	-0.85022	9.71E-05	1143.48922	-0.00203	-370.56474	3.96E-07
188.41637	-0.849	9.72E-05	1143.25492	-0.00202	-367.14483	3.92E-07
188.46977	-0.84808	9.71E-05	1143.20685	-0.00202	-368.07685	3.93E-07
188.52318	-0.84686	9.71E-05	1143.18993	-0.00201	-359.43205	3.84E-07
188.57659	-0.84595	9.71E-05	1143.27537	-0.00201	-360.26708	3.85E-07
188.62999	-0.84473	9.69E-05	1143.39356	-0.002	-366.23785	3.91E-07
188.6834	-0.84381	9.69E-05	1143.56979	-0.002	-358.266	3.83E-07
188.7368	-0.84259	9.68E-05	1143.49839	-0.00199	-364.38947	3.89E-07
188.79021	-0.84167	9.70E-05	1143.16729	-0.00199	-356.20166	3.80E-07
188.84362	-0.84045	9.69E-05	1142.98741	-0.00198	-361.85803	3.86E-07
188.89702	-0.83954	9.68E-05	1142.90196	-0.00198	-355.84056	3.80E-07
188.95043	-0.83832	9.68E-05	1142.69351	-0.00197	-358.14388	3.82E-07
189.00383	-0.8374	9.64E-05	1142.44252	-0.00197	-354.07545	3.78E-07
189.05724	-0.83618	9.65E-05	1142.2752	-0.00196	-352.73175	3.77E-07
189.11065	-0.83527	9.64E-05	1142.12033	-0.00196	-354.56679	3.79E-07
189.16405	-0.83405	9.63E-05	1141.90684	-0.00195	-346.19452	3.70E-07
189.21746	-0.83313	9.64E-05	1141.76417	-0.00195	-347.11488	3.71E-07
189.27086	-0.83191	9.62E-05	1142.11663	-0.00194	-349.54111	3.73E-07
189.32427	-0.83099	9.62E-05	1142.3692	-0.00194	-340.57985	3.64E-07
189.37768	-0.82977	9.60E-05	1142.32648	-0.00193	-342.58665	3.66E-07
189.43108	-0.82886	9.59E-05	1142.2797	-0.00193	-335.88268	3.59E-07
189.48449	-0.82764	9.57E-05	1142.22629	-0.00192	-340.99064	3.64E-07
189.53789	-0.82672	9.56E-05	1142.2976	-0.00192	-338.50493	3.62E-07
189.5913	-0.8255	9.55E-05	1142.48985	-0.00191	-339.70419	3.63E-07
189.64471	-0.82458	9.54E-05	1142.74654	-0.00191	-336.7256	3.60E-07
189.69811	-0.82336	9.54E-05	1143.04026	-0.0019	-336.16382	3.59E-07
189.75152	-0.82245	9.53E-05	1142.86567	-0.0019	-335.86636	3.59E-07
189.80492	-0.82123	9.50E-05	1142.54525	-0.00189	-330.8663	3.53E-07
189.85833	-0.82031	9.37E-05	1142.4197	-0.00189	-331.79986	3.54E-07
189.91174	-0.81909	9.41E-05	1142.32074	-0.00188	-330.97391	3.53E-07
189.96514	-0.81818	9.50E-05	1142.36347	-0.00188	-330.61074	3.53E-07
190.01855	-0.81696	9.48E-05	1142.36828	-0.00187	-330.25864	3.53E-07
190.07195	-0.81604	9.44E-05	1142.14933	-0.00187	-330.46107	3.53E-07
190.12536	-0.81482	9.42E-05	1141.8533	-0.00186	-327.90971	3.50E-07
190.17877	-0.8139	9.42E-05	1141.35131	-0.00186	-321.04723	3.43E-07
190.23217	-0.81268	9.40E-05	1141.01157	-0.00185	-323.60407	3.46E-07
190.28558	-0.81177	9.39E-05	1140.91545	-0.00185	-323.44176	3.45E-07
190.33898	-0.81055	9.37E-05	1140.90097	-0.00184	-322.38178	3.44E-07
190.39239	-0.80963	9.35E-05	1140.95971	-0.00184	-322.95192	3.45E-07
190.4458	-0.80841	9.33E-05	1140.81219	-0.00183	-322.62745	3.45E-07
190.4992	-0.8075	9.32E-05	1140.55585	-0.00183	-319.32346	3.41E-07
190.55261	-0.80627	9.31E-05	1140.80072	-0.00182	-313.74902	3.35E-07
190.60601	-0.80505	9.28E-05	1141.18522	-0.00182	-316.79002	3.38E-07
190.65942	-0.80414	9.27E-05	1141.43372	-0.00181	-314.43021	3.36E-07
190.71283	-0.80322	9.25E-05	1141.67008	-0.00181	-316.27737	3.38E-07
190.76623	-0.802	9.24E-05	1141.94243	-0.0018	-312.67959	3.34E-07
190.81964	-0.80109	9.22E-05	1142.25518	-0.0018	-309.49526	3.31E-07
190.87304	-0.79987	9.22E-05	1142.77319	-0.00179	-312.34818	3.34E-07
190.92645	-0.79895	9.19E-05	1143.19923	-0.00179	-306.74565	3.28E-07
190.97986	-0.79773	9.18E-05	1143.40216	-0.00178	-300.34337	3.21E-07
191.03326	-0.79681	9.16E-05	1143.46626	-0.00178	-302.46382	3.23E-07
191.08667	-0.79559	9.13E-05	1143.33809	-0.00177	-305.74027	3.27E-07
191.14007	-0.79437	9.13E-05	1143.37928	-0.00177	-301.00989	3.21E-07
191.19348	-0.79346	9.11E-05	1143.56085	-0.00176	-298.05298	3.18E-07
191.24689	-0.79254	9.10E-05	1143.73522	-0.00176	-301.06686	3.22E-07
191.30029	-0.79132	9.07E-05	1143.90611	-0.00175	-301.89099	3.22E-07
191.3537	-0.79041	9.06E-05	1143.7131	-0.00175	-303.19041	3.24E-07
191.4071	-0.78918	9.04E-05	1143.43007	-0.00174	-300.99825	3.21E-07
191.46051	-0.78796	9.03E-05	1143.16192	-0.00174	-294.08606	3.14E-07
191.51392	-0.78705	9.01E-05	1142.91483	-0.00173	-294.04207	3.14E-07
191.56732	-0.78583	8.98E-05	1143.00028	-0.00173	-293.66609	3.14E-07
191.62073	-0.78491	8.95E-05	1142.99925	-0.00172	-291.70476	3.12E-07
191.67413	-0.784	8.95E-05	1142.61475	-0.00172	-284.13245	3.03E-07
191.72754	-0.78278	8.94E-05	1142.24688	-0.00171	-288.13008	3.08E-07
191.78095	-0.78186	8.80E-05	1141.91578	-0.00171	-288.74655	3.08E-07
191.83435	-0.78064	8.84E-05	1141.79094	-0.0017	-289.83044	3.10E-07
191.88776	-0.77972	8.85E-05	1141.92979	-0.0017	-290.28911	3.10E-07
191.94116	-0.7785	8.92E-05	1142.04444	-0.00169	-292.22395	3.12E-07
191.99457	-0.77759	8.88E-05	1142.14056	-0.00169	-284.28618	3.04E-07
192.04798	-0.77637	8.84E-05	1142.10702	-0.00169	-277.40089	2.96E-07
192.10138	-0.77545	8.83E-05	1142.01623	-0.00168	-279.39795	2.98E-07
192.15479	-0.77423	8.79E-05	1142.06578	-0.00168	-279.81791	2.99E-07
192.20819	-0.77332	8.79E-05	1142.14589	-0.00167	-283.21037	3.02E-07
192.2616	-0.77209	8.77E-05	1142.18546	-0.00167	-276.98982	2.96E-07
192.31501	-0.77118	8.72E-05	1142.21675	-0.00166	-277.20685	2.96E-07
192.36841	-0.76996	8.73E-05	1142.17403	-0.00166	-280.48241	3.00E-07
192.42182	-0.76904	8.71E-05	1142.22153	-0.00165	-274.60745	2.93E-07
192.47522	-0.76782	8.68E-05	1142.62205	-0.00165	-278.07121	2.97E-07
192.52863	-0.76691	8.68E-05	1142.98368	-0.00164	-270.88554	2.89E-07
192.58204	-0.76569	8.65E-05	1143.26672	-0.00164	-271.74665	2.90E-07
192.63544	-0.76477	8.64E-05	1143.68441	-0.00163	-269.00204	2.87E-07
192.68885	-0.76355	8.62E-05	1144.26116	-0.00163	-274.85116	2.94E-07
192.74225	-0.76263	8.61E-05	1144.81601	-0.00162	-269.4164	2.88E-07
192.79566	-0.76141	8.59E-05	1145.35538	-0.00162	-267.34193	2.86E-07
192.84907	-0.76019	8.57E-05	1145.03383	-0.00162	-274.15544	2.93E-07
192.90247	-0.75928	8.56E-05	1144.36629	-0.00161	-266.01934	2.84E-07
192.95588	-0.75836	8.54E-05	1143.99958	-0.00161	-262.11589	2.80E-07
193.00928	-0.75714	8.51E-05	1143.68984	-0.0016	-264.3416	2.82E-07
193.06269	-0.75623	8.49E-05	1143.44732	-0.0016	-268.0061	2.86E-07
193.1161	-0.755	8.48E-05	1143.1784	-0.00159	-258.87021	2.76E-07
193.1695	-0.75409	8.47E-05	1142.63903	-0.00159	-259.49985	2.77E-07
193.22291	-0.75287	8.46E-05	1142.14851	-0.00158	-259.3953	2.77E-07
193.27631	-0.75195	8.44E-05	1141.82809	-0.00158	-255.65773	2.73E-07
193.32972	-0.75073	8.42E-05	1141.85214	-0.00157	-264.19156	2.82E-07
193.38313	-0.74982	8.39E-05	1142.51433	-0.00157	-257.5615	2.75E-07
193.43653	-0.7486	8.38E-05	1142.84213	-0.00157	-250.25281	2.67E-07
193.48994	-0.74768	8.37E-05	1142.80475	-0.00156	-254.25646	2.72E-07
193.54334	-0.74646	8.35E-05	1142.80617	-0.00156	-252.21519	2.69E-07
193.59675	-0.74554	8.34E-05	1142.83287	-0.00155	-257.34894	2.75E-07
193.65016	-0.74432	8.33E-05	1143.11788	-0.00155	-251.39769	2.68E-07
193.70356	-0.74341	8.29E-05	1143.49704	-0.00154	-247.97096	2.65E-07
193.75697	-0.74219	8.22E-05	1143.25596	-0.00154	-250.35035	2.67E-07
193.81037	-0.74127	8.24E-05	1142.91418	-0.00153	-253.547	2.71E-07
193.86378	-0.74005	8.30E-05	1142.41415	-0.00153	-252.33397	2.69E-07
193.91719	-0.73883	8.26E-05	1141.99277	-0.00153	-246.28442	2.63E-07
193.97059	-0.73792	8.23E-05	1142.19036	-0.00152	-246.27659	2.63E-07
194.024	-0.737	8.20E-05	1142.33611	-0.00152	-243.90105	2.60E-07
194.0774	-0.73578	8.18E-05	1142.32009	-0.00151	-245.78528	2.62E-07
194.13081	-0.73456	8.17E-05	1142.57485	-0.00151	-241.5557	2.58E-07
194.18422	-0.73364	8.16E-05	1143.29045	-0.0015	-242.53465	2.59E-07
194.23762	-0.73242	8.13E-05	1143.66329	-0.0015	-241.37153	2.58E-07
194.29103	-0.73151	8.12E-05	1143.68999	-0.0015	-237.3753	2.54E-07
194.34443	-0.73029	8.10E-05	1143.66662	-0.00149	-240.0832	2.56E-07
194.39784	-0.72937	8.09E-05	1143.61322	-0.00149	-232.79901	2.49E-07
194.45125	-0.72815	8.08E-05	1143.43525	-0.00148	-236.07547	2.52E-07
194.50465	-0.72723	8.04E-05	1143.2163	-0.00148	-236.28795	2.52E-07
194.55806	-0.72601	8.05E-05	1143.13831	-0.00147	-237.42498	2.54E-07
194.61146	-0.7251	8.02E-05	1143.07851	-0.00147	-230.69287	2.46E-07
194.66487	-0.72388	8.00E-05	1142.87558	-0.00147	-232.76453	2.49E-07
194.71828	-0.72296	7.99E-05	1142.73167	-0.00146	-231.05154	2.47E-07
194.77168	-0.72174	7.98E-05	1142.96664	-0.00146	-233.97888	2.50E-07
194.82509	-0.72083	7.96E-05	1143.1526	-0.00145	-233.85375	2.50E-07
194.87849	-0.7196	7.96E-05	1143.20067	-0.00145	-230.39829	2.46E-07
194.9319	-0.71869	7.93E-05	1143.24665	-0.00144	-230.19095	2.46E-07
194.98531	-0.71747	7.91E-05	1143.28937	-0.00144	-228.54834	2.44E-07
195.03871	-0.71655	7.90E-05	1143.19954	-0.00144	-229.69268	2.45E-07
195.09212	-0.71533	7.88E-05	1142.98593	-0.00143	-224.98225	2.40E-07
195.14552	-0.71442	7.86E-05	1142.91	-0.00143	-227.22934	2.43E-07
195.19893	-0.7132	7.84E-05	1142.91	-0.00142	-223.82562	2.39E-07
195.25234	-0.71228	7.83E-05	1142.83167	-0.00142	-225.22382	2.41E-07
195.30574	-0.71106	7.81E-05	1142.7302	-0.00141	-223.56394	2.39E-07
195.35915	-0.71014	7.80E-05	1142.79205	-0.00141	-219.80703	2.35E-07
195.41255	-0.70892	7.79E-05	1142.86871	-0.00141	-222.38937	2.38E-07
195.46596	-0.70801	7.75E-05	1142.82064	-0.0014	-218.40256	2.33E-07
195.51937	-0.70679	7.76E-05	1142.77918	-0.0014	-215.60411	2.30E-07
195.57277	-0.70587	7.74E-05	1142.77384	-0.00139	-216.75041	2.31E-07
195.62618	-0.70465	7.72E-05	1142.78505	-0.00139	-220.30495	2.35E-07
195.67958	-0.70374	7.71E-05	1142.83845	-0.00139	-218.31567	2.33E-07
195.73299	-0.70282	7.61E-05	1142.96834	-0.00138	-210.35723	2.25E-07
195.7864	-0.7016	7.63E-05	1143.20866	-0.00138	-211.60418	2.26E-07
195.8398	-0.70068	7.72E-05	1143.37732	-0.00137	-216.6596	2.31E-07
195.89321	-0.69946	7.67E-05	1143.48413	-0.00137	-215.1193	2.30E-07
195.94661	-0.69855	7.63E-05	1143.42424	-0.00137	-212.3413	2.27E-07
196.00002	-0.69733	7.61E-05	1143.28005	-0.00136	-211.38223	2.26E-07
196.05343	-0.69641	7.60E-05	1143.21196	-0.00136	-209.13301	2.23E-07
196.10683	-0.69519	7.59E-05	1143.16389	-0.00135	-204.09368	2.18E-07
196.16024	-0.69427	7.57E-05	1143.10111	-0.00135	-206.44652	2.20E-07
196.21364	-0.69305	7.54E-05	1143.03206	-0.00134	-213.40767	2.28E-07
196.26705	-0.69214	7.53E-05	1142.86117	-0.00134	-211.71659	2.26E-07
196.32046	-0.69092	7.51E-05	1142.681	-0.00134	-208.43415	2.23E-07
196.37386	-0.69	7.50E-05	1142.4567	-0.00133	-207.843	2.22E-07
196.42727	-0.68878	7.48E-05	1142.30483	-0.00133	-205.39477	2.19E-07
196.48067	-0.68787	7.47E-05	1142.32085	-0.00132	-201.00654	2.15E-07
196.53408	-0.68665	7.44E-05	1142.49945	-0.00132	-209.48529	2.24E-07
196.58749	-0.68542	7.43E-05	1142.89463	-0.00132	-205.28282	2.19E-07
196.64089	-0.68451	7.43E-05	1143.10267	-0.00131	-202.34622	2.16E-07
196.6943	-0.68359	7.40E-05	1143.16142	-0.00131	-203.37068	2.17E-07
196.7477	-0.68237	7.38E-05	1142.9938	-0.00131	-200.74389	2.14E-07
196.80111	-0.68146	7.37E-05	1142.72144	-0.0013	-206.71997	2.21E-07
196.85452	-0.68024	7.34E-05	1142.79562	-0.0013	-200.68474	2.14E-07
196.90792	-0.67902	7.33E-05	1142.95049	-0.00129	-197.72009	2.11E-07
196.96133	-0.6781	7.32E-05	1143.38102	-0.00129	-198.40507	2.12E-07
197.01473	-0.67688	7.30E-05	1143.78696	-0.00129	-199.13943	2.13E-07
197.06814	-0.67596	7.28E-05	1143.58937	-0.00128	-199.44981	2.13E-07
197.12155	-0.67474	7.27E-05	1143.35458	-0.00128	-196.96325	2.10E-07
197.17495	-0.67383	7.25E-05	1142.96474	-0.00127	-195.91805	2.09E-07
197.22836	-0.67291	7.24E-05	1142.83024	-0.00127	-196.54854	2.10E-07
197.28176	-0.67169	7.21E-05	1143.2361	-0.00127	-190.78557	2.04E-07
197.33517	-0.67078	7.20E-05	1143.48873	-0.00126	-195.7583	2.09E-07
197.38858	-0.66956	7.18E-05	1143.55281	-0.00126	-193.29489	2.06E-07
197.44198	-0.66833	7.16E-05	1143.5677	-0.00125	-190.13886	2.03E-07
197.49539	-0.66742	7.15E-05	1143.54634	-0.00125	-190.92425	2.04E-07
197.54879	-0.6665	7.13E-05	1143.65642	-0.00125	-192.80988	2.06E-07
197.6022	-0.66528	7.12E-05	1143.82197	-0.00124	-184.95862	1.98E-07
197.65561	-0.66437	6.90E-05	1144.24037	-0.00124	-185.21551	1.98E-07
197.70901	-0.66315	7.00E-05	1144.71032	-0.00124	-188.02512	2.01E-07
197.76242	-0.66193	7.08E-05	1144.3923	-0.00123	-187.2398	2.00E-07
197.81582	-0.66101	7.05E-05	1144.05721	-0.00123	-189.16557	2.02E-07
197.86923	-0.65979	7.03E-05	1143.90768	-0.00122	-187.71655	2.00E-07
197.92264	-0.65887	7.00E-05	1143.72289	-0.00122	-188.4125	2.01E-07
197.97604	-0.65765	6.99E-05	1143.40781	-0.00122	-179.64258	1.92E-07
198.02945	-0.65674	6.97E-05	1143.16546	-0.00121	-181.48054	1.94E-07
198.08285	-0.65552	6.96E-05	1143.06399	-0.00121	-181.08896	1.93E-07
198.13626	-0.6546	6.92E-05	1142.84758	-0.00121	-178.0961	1.90E-07
198.18967	-0.65338	6.92E-05	1142.50046	-0.0012	-179.11002	1.91E-07
198.24307	-0.65247	6.90E-05	1142.52532	-0.0012	-180.04557	1.92E-07
198.29648	-0.65125	6.88E-05	1142.80302	-0.00119	-182.74269	1.95E-07
198.34988	-0.65033	6.86E-05	1142.96492	-0.00119	-181.18555	1.94E-07
198.40329	-0.64911	6.82E-05	1143.0824	-0.00119	-182.36859	1.95E-07
198.4567	-0.64819	6.81E-05	1143.16811	-0.00118	-179.20338	1.91E-07
198.5101	-0.64697	6.80E-05	1143.24821	-0.00118	-176.21413	1.88E-07
198.56351	-0.64606	6.78E-05	1143.24478	-0.00118	-177.68924	1.90E-07
198.61691	-0.64484	6.76E-05	1143.28154	-0.00117	-176.34287	1.88E-07
198.67032	-0.64392	6.75E-05	1143.67672	-0.00117	-177.71972	1.90E-07
198.72373	-0.6427	6.72E-05	1143.98248	-0.00117	-176.78974	1.89E-07
198.77713	-0.64178	6.71E-05	1143.99316	-0.00116	-173.00448	1.85E-07
198.83054	-0.64056	6.69E-05	1143.96924	-0.00116	-178.65514	1.91E-07
198.88394	-0.63965	6.66E-05	1143.88379	-0.00116	-170.59647	1.82E-07
198.93735	-0.63843	6.64E-05	1143.95454	-0.00115	-172.97821	1.85E-07
198.99076	-0.63751	6.63E-05	1144.18951	-0.00115	-171.2319	1.83E-07
199.04416	-0.63629	6.61E-05	1144.41463	-0.00114	-170.78215	1.82E-07
199.09757	-0.63538	6.59E-05	1144.63359	-0.00114	-168.02654	1.79E-07
199.15097	-0.63416	6.57E-05	1144.67414	-0.00114	-162.58048	1.74E-07
199.20438	-0.63324	6.54E-05	1144.65278	-0.00113	-165.18667	1.76E-07
199.25779	-0.63202	6.54E-05	1144.73825	-0.00113	-167.16773	1.79E-07
199.31119	-0.6311	6.51E-05	1144.83972	-0.00113	-169.63771	1.81E-07
199.3646	-0.62988	6.48E-05	1145.01042	-0.00112	-164.26251	1.75E-07
199.418	-0.62897	6.48E-05	1145.1034	-0.00112	-166.05493	1.77E-07
199.47141	-0.62775	6.45E-05	1144.64948	-0.00112	-169.30929	1.81E-07
199.52482	-0.62683	6.43E-05	1144.23595	-0.00111	-163.76943	1.75E-07
199.57822	-0.62561	6.43E-05	1143.94223	-0.00111	-165.61219	1.77E-07
199.63163	-0.62469	6.28E-05	1143.7073	-0.00111	-161.44427	1.72E-07
199.68503	-0.62378	6.33E-05	1143.56845	-0.0011	-160.98663	1.72E-07
199.73844	-0.62256	6.39E-05	1143.50812	-0.0011	-158.34459	1.69E-07
199.79185	-0.62164	6.35E-05	1143.52414	-0.0011	-161.59601	1.73E-07
199.84525	-0.62042	6.31E-05	1143.45546	-0.00109	-157.7646	1.68E-07
199.89866	-0.61951	6.30E-05	1143.33797	-0.00109	-161.65193	1.73E-07
199.95206	-0.61829	6.29E-05	1143.67619	-0.00109	-158.16314	1.69E-07
200.00547	-0.61737	6.25E-05	1144.15682	-0.00108	-160.53069	1.71E-07
200.05888	-0.61615	6.26E-05	1144.37148	-0.00108	-157.74468	1.68E-07
200.11228	-0.61523	6.21E-05	1144.55421	-0.00108	-156.31566	1.67E-07
200.16569	-0.61401	6.19E-05	1144.80521	-0.00107	-157.24106	1.68E-07
200.21909	-0.6131	6.19E-05	1145.03772	-0.00107	-149.91837	1.60E-07
200.2725	-0.61188	6.16E-05	1145.16054	-0.00107	-159.31242	1.70E-07
200.32591	-0.61096	6.13E-05	1145.20502	-0.00106	-156.00135	1.67E-07
200.37931	-0.60974	6.13E-05	1145.03947	-0.00106	-150.85587	1.61E-07
200.43272	-0.60883	6.11E-05	1144.99329	-0.00106	-152.56512	1.63E-07
200.48612	-0.6076	6.08E-05	1145.12679	-0.00105	-154.50304	1.65E-07
200.53953	-0.60669	6.08E-05	1145.13095	-0.00105	-150.36934	1.61E-07
200.59294	-0.60547	6.04E-05	1145.0188	-0.00105	-154.26391	1.65E-07
200.64634	-0.60455	6.03E-05	1144.73552	-0.00104	-151.59913	1.62E-07
200.69975	-0.60333	6.01E-05	1144.36169	-0.00104	-145.14369	1.55E-07
200.75315	-0.60242	5.99E-05	1143.86685	-0.00104	-150.5233	1.61E-07
200.80656	-0.6012	5.97E-05	1143.33816	-0.00103	-147.58435	1.58E-07
200.85997	-0.60028	5.95E-05	1143.44532	-0.00103	-146.51325	1.56E-07
200.91337	-0.59906	5.92E-05	1143.59505	-0.00103	-148.29646	1.58E-07
200.96678	-0.59814	5.91E-05	1143.18385	-0.00102	-144.50687	1.54E-07
201.02018	-0.59692	5.90E-05	1142.80239	-0.00102	-147.85717	1.58E-07
201.07359	-0.59601	5.87E-05	1142.57275	-0.00102	-145.70687	1.56E-07
201.127	-0.59479	5.86E-05	1142.43177	-0.00101	-146.67574	1.57E-07
201.1804	-0.59387	5.84E-05	1142.50654	-0.00101	-146.96346	1.57E-07
201.23381	-0.59265	5.82E-05	1142.6372	-0.00101	-143.32088	1.53E-07
201.28721	-0.59174	5.80E-05	1142.84547	-0.00101	-140.90469	1.50E-07
201.34062	-0.59052	5.78E-05	1143.02166	-0.001	-139.51592	1.49E-07
201.39403	-0.5896	5.76E-05	1143.17119	-9.99E-04	-143.55143	1.53E-07
201.44743	-0.58838	5.75E-05	1143.27036	-9.96E-04	-147.13673	1.57E-07
201.50084	-0.58746	5.73E-05	1143.34512	-9.93E-04	-142.64136	1.52E-07
201.55424	-0.58624	5.71E-05	1143.50972	-9.90E-04	-140.73313	1.50E-07
201.60765	-0.58533	5.70E-05	1143.69663	-9.87E-04	-142.93228	1.53E-07
201.66106	-0.58411	5.68E-05	1143.829	-9.84E-04	-144.13342	1.54E-07
201.71446	-0.58289	5.71E-05	1143.95687	-9.81E-04	-135.64783	1.45E-07
201.76787	-0.58197	5.65E-05	1144.07969	-9.78E-04	-137.36851	1.47E-07
201.82127	-0.58075	5.62E-05	1144.17119	-9.75E-04	-138.04383	1.47E-07
201.87468	-0.57983	5.60E-05	1144.12312	-9.72E-04	-135.7118	1.45E-07
201.92809	-0.57861	5.60E-05	1144.01531	-9.69E-04	-134.98281	1.44E-07
201.98149	-0.5777	5.58E-05	1143.775	-9.66E-04	-139.67958	1.49E-07
202.0349	-0.57648	5.54E-05	1143.65872	-9.63E-04	-135.45346	1.45E-07
202.0883	-0.57556	5.52E-05	1143.70145	-9.60E-04	-134.55372	1.44E-07
202.14171	-0.57434	5.51E-05	1143.73208	-9.57E-04	-136.65956	1.46E-07
202.19512	-0.57343	5.50E-05	1143.75344	-9.54E-04	-134.09382	1.43E-07
202.24852	-0.5722	5.49E-05	1143.54161	-9.51E-04	-130.61265	1.39E-07
202.30193	-0.57129	5.47E-05	1143.22653	-9.49E-04	-136.33535	1.46E-07
202.35533	-0.57007	5.44E-05	1142.79752	-9.46E-04	-134.96583	1.44E-07
202.40874	-0.56915	5.44E-05	1142.3436	-9.43E-04	-130.19021	1.39E-07
202.46215	-0.56793	5.42E-05	1142.84146	-9.40E-04	-128.47657	1.37E-07
202.51555	-0.56702	5.40E-05	1143.32783	-9.37E-04	-133.86323	1.43E-07
202.56896	-0.5658	5.39E-05	1143.03412	-9.34E-04	-132.06041	1.41E-07
202.62236	-0.56488	5.37E-05	1142.74149	-9.31E-04	-128.82744	1.38E-07
202.67577	-0.56366	5.35E-05	1142.45311	-9.28E-04	-130.14389	1.39E-07
202.72918	-0.56274	5.34E-05	1142.36938	-9.25E-04	-129.02067	1.38E-07
202.78258	-0.56152	5.32E-05	1142.70048	-9.23E-04	-126.94654	1.36E-07
202.83599	-0.56061	5.31E-05	1143.17093	-9.20E-04	-126.56136	1.35E-07
202.88939	-0.55939	5.30E-05	1143.80642	-9.17E-04	-130.7301	1.40E-07
202.9428	-0.55847	5.28E-05	1143.88873	-9.14E-04	-125.79304	1.34E-07
202.99621	-0.55725	5.26E-05	1143.57899	-9.11E-04	-131.4796	1.40E-07
203.04961	-0.55634	5.24E-05	1143.81351	-9.09E-04	-129.98172	1.39E-07
203.10302	-0.55511	5.23E-05	1144.26743	-9.06E-04	-125.27321	1.34E-07
203.15642	-0.5542	5.21E-05	1144.48806	-9.03E-04	-126.83572	1.35E-07
203.20983	-0.55298	5.20E-05	1144.66429	-9.00E-04	-128.46634	1.37E-07
203.26324	-0.55206	5.18E-05	1144.98003	-8.97E-04	-123.02966	1.31E-07
203.31664	-0.55084	5.17E-05	1145.2837	-8.95E-04	-124.91647	1.33E-07
203.37005	-0.54993	5.15E-05	1145.42789	-8.92E-04	-123.46604	1.32E-07
203.42345	-0.54871	5.15E-05	1145.58396	-8.89E-04	-122.11047	1.30E-07
203.47686	-0.54779	5.13E-05	1145.78155	-8.86E-04	-123.77416	1.32E-07
203.53027	-0.54657	5.06E-05	1145.8446	-8.84E-04	-122.64011	1.31E-07
203.58367	-0.54565	5.08E-05	1145.65769	-8.81E-04	-119.81588	1.28E-07
203.63708	-0.54443	5.13E-05	1145.3994	-8.78E-04	-117.45146	1.25E-07
203.69048	-0.54352	5.09E-05	1145.06296	-8.76E-04	-118.00474	1.26E-07
203.74389	-0.5426	5.06E-05	1144.8654	-8.73E-04	-118.12915	1.26E-07
203.7973	-0.54138	5.04E-05	1144.7586	-8.70E-04	-121.63371	1.30E-07
203.8507	-0.54047	5.04E-05	1144.43281	-8.67E-04	-122.80347	1.31E-07
203.90411	-0.53925	5.01E-05	1144.02695	-8.65E-04	-121.30585	1.30E-07
203.95751	-0.53833	5.01E-05	1143.95164	-8.62E-04	-118.75818	1.27E-07
204.01092	-0.53711	4.99E-05	1143.93027	-8.59E-04	-117.10058	1.25E-07
204.06433	-0.53589	4.99E-05	1143.60843	-8.57E-04	-116.75607	1.25E-07
204.11773	-0.53497	4.97E-05	1143.3867	-8.54E-04	-115.58772	1.23E-07
204.17114	-0.53406	4.95E-05	1143.96879	-8.51E-04	-116.75562	1.25E-07
204.22454	-0.53284	4.94E-05	1144.32082	-8.49E-04	-114.52259	1.22E-07
204.27795	-0.53162	4.93E-05	1143.95234	-8.46E-04	-115.70194	1.24E-07
204.33136	-0.5307	4.92E-05	1143.73776	-8.44E-04	-113.91466	1.22E-07
204.38476	-0.52979	4.91E-05	1143.78582	-8.41E-04	-117.01184	1.25E-07
204.43817	-0.52856	4.90E-05	1143.79408	-8.38E-04	-114.0495	1.22E-07
204.49157	-0.52734	4.88E-05	1143.76204	-8.36E-04	-109.25609	1.17E-07
204.54498	-0.52643	4.88E-05	1143.89004	-8.33E-04	-109.09279	1.17E-07
204.59839	-0.52521	4.86E-05	1144.11433	-8.31E-04	-112.73669	1.20E-07
204.65179	-0.52429	4.86E-05	1144.06561	-8.28E-04	-112.547	1.20E-07
204.7052	-0.52307	4.84E-05	1143.92677	-8.25E-04	-114.65472	1.22E-07
204.7586	-0.52216	4.84E-05	1144.07904	-8.23E-04	-112.69076	1.20E-07
204.81201	-0.52094	4.81E-05	1144.27011	-8.20E-04	-110.58966	1.18E-07
204.86542	-0.52002	4.81E-05	1144.28613	-8.18E-04	-112.96869	1.21E-07
204.91882	-0.5191	4.81E-05	1144.3043	-8.15E-04	-106.15246	1.13E-07
204.97223	-0.51788	4.78E-05	1144.33634	-8.13E-04	-107.74672	1.15E-07
205.02563	-0.51666	4.77E-05	1144.42705	-8.10E-04	-105.70673	1.13E-07
205.07904	-0.51575	4.77E-05	1144.68339	-8.07E-04	-109.70182	1.17E-07
205.13245	-0.51483	4.76E-05	1144.84208	-8.05E-04	-111.82751	1.19E-07
205.18585	-0.51361	4.75E-05	1144.84742	-8.02E-04	-108.78212	1.16E-07
205.23926	-0.51239	4.74E-05	1144.81139	-8.00E-04	-108.063	1.15E-07
205.29266	-0.51147	4.73E-05	1144.73662	-7.97E-04	-106.22684	1.13E-07
205.34607	-0.51025	4.72E-05	1144.97478	-7.95E-04	-108.94855	1.16E-07
205.39948	-0.50934	4.72E-05	1145.38598	-7.92E-04	-107.15624	1.14E-07
205.45288	-0.50842	4.57E-05	1145.41409	-7.90E-04	-104.47677	1.12E-07
205.50629	-0.5072	4.66E-05	1145.32865	-7.87E-04	-102.36016	1.09E-07
205.55969	-0.50629	4.68E-05	1145.464	-7.85E-04	-105.91734	1.13E-07
205.6131	-0.50507	4.72E-05	1145.61972	-7.82E-04	-102.91614	1.10E-07
205.66651	-0.50385	4.67E-05	1145.60904	-7.80E-04	-105.23506	1.12E-07
205.71991	-0.50293	4.66E-05	1145.56307	-7.77E-04	-101.69426	1.09E-07
205.77332	-0.50171	4.65E-05	1145.32275	-7.75E-04	-101.01615	1.08E-07
205.82672	-0.50079	4.64E-05	1145.1455	-7.72E-04	-103.25653	1.10E-07
205.88013	-0.49957	4.64E-05	1145.12948	-7.70E-04	-103.71817	1.11E-07
205.93354	-0.49908	4.63E-05	1145.12	-7.67E-04	-100.98266	1.08E-07
205.98694	-0.49802	4.61E-05	1145.12	-7.65E-04	-104.05101	1.11E-07
206.04035	-0.49695	4.62E-05	1145.02554	-7.62E-04	-101.28625	1.08E-07
206.09375	-0.49588	4.60E-05	1144.84931	-7.60E-04	-98.41241	1.05E-07
206.14716	-0.49481	4.59E-05	1144.74748	-7.58E-04	-95.30287	1.02E-07
206.20057	-0.49374	4.59E-05	1144.6834	-7.55E-04	-96.25017	1.03E-07
206.25397	-0.49268	4.58E-05	1144.7418	-7.53E-04	-101.69222	1.09E-07
206.30738	-0.49161	4.57E-05	1144.83259	-7.50E-04	-97.86279	1.05E-07
206.36078	-0.49051	4.57E-05	1144.80567	-7.48E-04	-97.14781	1.04E-07
206.41419	-0.48947	4.56E-05	1144.74578	-7.45E-04	-95.85628	1.02E-07
206.4676	-0.4884	4.55E-05	1144.21709	-7.43E-04	-96.83042	1.03E-07
206.521	-0.4873	4.54E-05	1143.84014	-7.41E-04	-97.87205	1.05E-07
206.57441	-0.48624	4.54E-05	1144.18726	-7.38E-04	-93.56258	9.99E-08
206.62781	-0.48517	4.53E-05	1144.41876	-7.36E-04	-98.26892	1.05E-07
206.68122	-0.4841	4.52E-05	1144.38138	-7.33E-04	-94.21894	1.01E-07
206.73463	-0.48306	4.52E-05	1144.35314	-7.31E-04	-95.58238	1.02E-07
206.78803	-0.48196	4.51E-05	1144.33712	-7.28E-04	-96.97801	1.04E-07
206.84144	-0.4809	4.51E-05	1144.0422	-7.26E-04	-92.16291	9.84E-08
206.89484	-0.47983	4.50E-05	1143.52419	-7.24E-04	-90.5562	9.67E-08
206.94825	-0.47876	4.49E-05	1144.06034	-7.21E-04	-93.25543	9.96E-08
207.00166	-0.47769	4.49E-05	1145.08567	-7.19E-04	-95.36233	1.02E-07
207.05506	-0.47662	4.48E-05	1145.20642	-7.16E-04	-91.63613	9.79E-08
207.10847	-0.47556	4.47E-05	1145.11564	-7.14E-04	-88.905	9.50E-08
207.16187	-0.47449	4.47E-05	1145.29532	-7.12E-04	-95.00553	1.01E-07
207.21528	-0.47342	4.46E-05	1145.4793	-7.09E-04	-92.98092	9.93E-08
207.26869	-0.47235	4.47E-05	1145.46862	-7.07E-04	-90.30883	9.64E-08
207.32209	-0.47128	4.45E-05	1145.46515	-7.05E-04	-91.64384	9.79E-08
207.3755	-0.47021	4.45E-05	1145.49185	-7.02E-04	-91.52119	9.77E-08
207.4289	-0.46915	4.35E-05	1145.32358	-7.00E-04	-89.61028	9.57E-08
207.48231	-0.46811	4.42E-05	1144.74149	-6.97E-04	-87.2165	9.31E-08
207.53572	-0.46704	4.48E-05	1144.31241	-6.95E-04	-90.67109	9.68E-08
207.58912	-0.46594	4.43E-05	1144.0721	-6.93E-04	-84.29812	9.00E-08
207.64253	-0.4649	4.43E-05	1143.83486	-6.90E-04	-87.61125	9.36E-08
207.69593	-0.46384	4.40E-05	1143.59988	-6.88E-04	-87.69594	9.37E-08
207.74934	-0.46274	4.42E-05	1143.72886	-6.86E-04	-89.11502	9.52E-08
207.80275	-0.46167	4.41E-05	1144.01189	-6.83E-04	-83.55082	8.92E-08
207.85615	-0.46063	4.40E-05	1143.94918	-6.81E-04	-84.21333	8.99E-08
207.90956	-0.45953	4.39E-05	1143.81568	-6.79E-04	-83.61967	8.93E-08
207.96296	-0.4585	4.39E-05	1143.99408	-6.76E-04	-85.65496	9.15E-08
208.01637	-0.4574	4.38E-05	1144.15322	-6.74E-04	-86.72994	9.26E-08
208.06978	-0.45633	4.38E-05	1143.95563	-6.72E-04	-88.69182	9.47E-08
208.12318	-0.45526	4.38E-05	1143.8034	-6.69E-04	-82.85467	8.85E-08
208.17659	-0.45419	4.36E-05	1143.81942	-6.67E-04	-81.13113	8.66E-08
208.22999	-0.45313	4.37E-05	1143.79371	-6.65E-04	-82.59204	8.82E-08
208.2834	-0.45209	4.37E-05	1143.6869	-6.62E-04	-84.40252	9.01E-08
208.33681	-0.45099	4.35E-05	1143.6824	-6.60E-04	-81.28256	8.68E-08
208.39021	-0.44992	4.35E-05	1143.79455	-6.58E-04	-81.77423	8.73E-08
208.44362	-0.44885	4.36E-05	1143.58275	-6.55E-04	-83.21469	8.89E-08
208.49702	-0.44778	4.34E-05	1143.15019	-6.53E-04	-83.14239	8.88E-08
208.55043	-0.44672	4.35E-05	1142.97601	-6.51E-04	-83.39797	8.91E-08
208.60384	-0.44565	4.33E-05	1142.90125	-6.48E-04	-79.0415	8.44E-08
208.65724	-0.44458	4.32E-05	1142.87639	-6.46E-04	-79.18849	8.46E-08
208.71065	-0.44351	4.33E-05	1142.86037	-6.44E-04	-81.31971	8.68E-08
208.76405	-0.44244	4.33E-05	1142.78695	-6.41E-04	-75.98158	8.11E-08
208.81746	-0.44138	4.32E-05	1142.70996	-6.39E-04	-75.48461	8.06E-08
208.87087	-0.44028	4.31E-05	1142.61383	-6.37E-04	-80.72577	8.62E-08
208.92427	-0.43924	4.30E-05	1142.6428	-6.34E-04	-84.6924	9.05E-08
208.97768	-0.43814	4.30E-05	1143.08604	-6.32E-04	-78.84344	8.42E-08
209.03108	-0.4371	4.31E-05	1143.47363	-6.30E-04	-77.70751	8.30E-08
209.08449	-0.43604	4.29E-05	1143.76201	-6.28E-04	-76.07596	8.12E-08
209.1379	-0.43494	4.28E-05	1144.14657	-6.25E-04	-78.03906	8.33E-08
209.1913	-0.43387	4.29E-05	1144.63254	-6.23E-04	-77.99639	8.33E-08
209.24471	-0.43283	4.28E-05	1144.95121	-6.21E-04	-75.64195	8.08E-08
209.29811	-0.43173	4.28E-05	1145.16482	-6.18E-04	-71.85434	7.67E-08
209.35152	-0.43066	4.29E-05	1145.16851	-6.16E-04	-71.97868	7.69E-08
209.40493	-0.42963	4.22E-05	1145.09908	-6.14E-04	-73.65753	7.87E-08
209.45833	-0.42856	4.26E-05	1145.06215	-6.12E-04	-74.51733	7.96E-08
209.51174	-0.42746	4.31E-05	1145.03011	-6.09E-04	-71.07241	7.59E-08
209.56514	-0.42639	4.26E-05	1145.12048	-6.07E-04	-73.78251	7.88E-08
209.61855	-0.42532	4.25E-05	1145.16423	-6.05E-04	-71.70287	7.66E-08
209.67196	-0.42426	4.26E-05	1144.87585	-6.02E-04	-71.21786	7.61E-08
209.72536	-0.42319	4.24E-05	1144.67612	-6.00E-04	-72.47874	7.74E-08
209.77877	-0.42209	4.24E-05	1144.7402	-5.98E-04	-67.6129	7.22E-08
209.83217	-0.42105	4.24E-05	1144.90546	-5.96E-04	-74.62939	7.97E-08
209.88558	-0.41998	4.23E-05	1145.23656	-5.93E-04	-69.33818	7.41E-08
209.93899	-0.41891	4.23E-05	1145.41622	-5.91E-04	-66.19717	7.07E-08
209.99239	-0.41785	4.22E-05	1145.44827	-5.89E-04	-68.2443	7.29E-08
210.0458	-0.41678	4.22E-05	1145.43631	-5.87E-04	-73.02313	7.80E-08
210.0992	-0.41568	4.21E-05	1145.39892	-5.84E-04	-66.32253	7.08E-08
210.15261	-0.41464	4.22E-05	1145.5079	-5.82E-04	-68.06635	7.27E-08
210.20602	-0.41357	4.21E-05	1145.66276	-5.80E-04	-68.75005	7.34E-08
210.25942	-0.41248	4.21E-05	1145.60881	-5.78E-04	-71.77662	7.67E-08
210.31283	-0.41144	4.20E-05	1145.52862	-5.75E-04	-65.30109	6.97E-08
210.36623	-0.41034	4.19E-05	1145.44318	-5.73E-04	-69.70114	7.44E-08
210.41964	-0.40927	4.20E-05	1145.39914	-5.71E-04	-68.14935	7.28E-08
210.47305	-0.40823	4.19E-05	1145.60207	-5.69E-04	-64.69425	6.91E-08
210.52645	-0.40714	4.19E-05	1145.70079	-5.66E-04	-62.26063	6.65E-08
210.57986	-0.4061	4.18E-05	1145.51922	-5.64E-04	-64.85548	6.93E-08
210.63326	-0.40503	4.17E-05	1145.29934	-5.62E-04	-64.83282	6.92E-08
210.68667	-0.40396	4.18E-05	1145.02165	-5.60E-04	-64.68774	6.91E-08
210.74008	-0.40289	4.17E-05	1144.94336	-5.58E-04	-64.40608	6.88E-08
210.79348	-0.40179	4.17E-05	1145.04483	-5.55E-04	-66.11373	7.06E-08
210.84689	-0.40076	4.16E-05	1145.13932	-5.53E-04	-63.37159	6.77E-08
210.90029	-0.39966	4.17E-05	1145.2301	-5.51E-04	-64.08558	6.84E-08
210.9537	-0.39862	4.15E-05	1145.24583	-5.49E-04	-66.69756	7.12E-08
211.00711	-0.39755	4.15E-05	1145.24049	-5.46E-04	-63.79175	6.81E-08
211.06051	-0.39645	4.15E-05	1145.47282	-5.44E-04	-64.03146	6.84E-08
211.11392	-0.39539	4.14E-05	1145.72534	-5.42E-04	-59.1027	6.31E-08
211.16732	-0.39435	4.14E-05	1145.87487	-5.40E-04	-60.31066	6.44E-08
211.22073	-0.39325	4.13E-05	1145.98432	-5.38E-04	-61.17218	6.53E-08
211.27414	-0.39218	4.13E-05	1145.88819	-5.35E-04	-62.85175	6.71E-08
211.32754	-0.39114	4.07E-05	1145.78896	-5.33E-04	-58.39974	6.24E-08
211.38095	-0.39008	4.11E-05	1145.68216	-5.31E-04	-61.4592	6.56E-08
211.43435	-0.38901	4.17E-05	1145.54856	-5.29E-04	-60.58261	6.47E-08
211.48776	-0.38791	4.12E-05	1145.37767	-5.27E-04	-59.88447	6.40E-08
211.54117	-0.38684	4.13E-05	1145.15143	-5.24E-04	-60.3914	6.45E-08
211.59457	-0.38577	4.11E-05	1144.87908	-5.22E-04	-61.9693	6.62E-08
211.64798	-0.3847	4.11E-05	1144.74328	-5.20E-04	-58.34511	6.23E-08
211.70138	-0.38364	4.11E-05	1144.67386	-5.18E-04	-60.01124	6.41E-08
211.75479	-0.3826	4.09E-05	1144.97629	-5.16E-04	-55.0799	5.88E-08
211.8082	-0.3815	4.09E-05	1145.37148	-5.13E-04	-54.87608	5.86E-08
211.8616	-0.38043	4.10E-05	1145.43964	-5.11E-04	-59.29952	6.33E-08
211.91501	-0.37936	4.09E-05	1145.46524	-5.09E-04	-56.67172	6.05E-08
211.96841	-0.3783	4.10E-05	1145.19823	-5.07E-04	-56.70846	6.06E-08
212.02182	-0.37723	4.08E-05	1145.00927	-5.05E-04	-55.16416	5.89E-08
212.07523	-0.37616	4.08E-05	1145.16948	-5.02E-04	-55.47055	5.92E-08
212.12863	-0.37509	4.08E-05	1145.24853	-5.00E-04	-56.7297	6.06E-08
212.18204	-0.37402	4.08E-05	1145.14706	-4.98E-04	-51.42059	5.49E-08
212.23544	-0.37296	4.08E-05	1144.90772	-4.96E-04	-53.55363	5.72E-08
212.28885	-0.37186	4.07E-05	1144.49118	-4.94E-04	-55.06499	5.88E-08
212.34226	-0.37082	4.07E-05	1144.21948	-4.92E-04	-51.49848	5.50E-08
212.39566	-0.36975	4.07E-05	1144.05927	-4.89E-04	-50.44707	5.39E-08
212.44907	-0.36865	4.07E-05	1144.29845	-4.87E-04	-50.97453	5.44E-08
212.50247	-0.36758	4.07E-05	1144.71499	-4.85E-04	-52.01641	5.56E-08
212.55588	-0.36655	4.05E-05	1144.94325	-4.83E-04	-50.84349	5.43E-08
212.60929	-0.36545	4.06E-05	1145.13016	-4.81E-04	-50.57797	5.40E-08
212.66269	-0.36441	4.05E-05	1145.2766	-4.79E-04	-54.69432	5.84E-08
212.7161	-0.36331	4.05E-05	1145.38802	-4.76E-04	-48.63387	5.19E-08
212.7695	-0.36224	4.06E-05	1145.09431	-4.74E-04	-53.72956	5.74E-08
212.82291	-0.36118	4.04E-05	1144.90105	-4.72E-04	-50.99536	5.45E-08
212.87632	-0.36011	4.04E-05	1145.10398	-4.70E-04	-46.94086	5.01E-08
212.92972	-0.35904	4.05E-05	1145.24176	-4.68E-04	-47.50525	5.07E-08
212.98313	-0.358	4.04E-05	1145.2471	-4.66E-04	-51.12462	5.46E-08
213.03653	-0.3569	4.03E-05	1145.12061	-4.63E-04	-42.63103	4.55E-08
213.08994	-0.35583	4.04E-05	1144.83757	-4.61E-04	-49.47321	5.28E-08
213.14335	-0.35477	4.04E-05	1144.6919	-4.59E-04	-47.40524	5.06E-08
213.19675	-0.3537	4.03E-05	1144.64384	-4.57E-04	-42.95781	4.59E-08
213.25016	-0.35263	4.03E-05	1144.96082	-4.55E-04	-41.29269	4.41E-08
213.30356	-0.35159	3.94E-05	1145.42543	-4.53E-04	-47.50784	5.07E-08
213.35697	-0.35052	4.00E-05	1145.44172	-4.51E-04	-46.08549	4.92E-08
213.41038	-0.34943	4.07E-05	1145.3723	-4.48E-04	-48.56606	5.19E-08
213.46378	-0.34836	4.02E-05	1145.13247	-4.46E-04	-41.29768	4.41E-08
213.51719	-0.34729	4.01E-05	1144.91	-4.44E-04	-47.66423	5.09E-08
213.57059	-0.34622	4.01E-05	1144.91	-4.42E-04	-41.79403	4.46E-08
213.624	-0.34515	4.01E-05	1144.90763	-4.40E-04	-39.59697	4.23E-08
213.67741	-0.34409	4.01E-05	1144.89695	-4.38E-04	-41.14497	4.39E-08
213.73081	-0.34302	4.01E-05	1144.82285	-4.36E-04	-43.20662	4.61E-08
213.78422	-0.34198	4.00E-05	1144.6306	-4.33E-04	-44.25575	4.73E-08
213.83762	-0.34091	3.99E-05	1144.58346	-4.31E-04	-42.7141	4.56E-08
213.89103	-0.33981	4.01E-05	1144.69561	-4.29E-04	-41.91495	4.48E-08
213.94444	-0.33875	4.00E-05	1144.73032	-4.27E-04	-39.68114	4.24E-08
213.99784	-0.33768	3.99E-05	1144.7143	-4.25E-04	-44.14317	4.71E-08
214.05125	-0.33661	4.01E-05	1144.77642	-4.23E-04	-41.69357	4.45E-08
214.10465	-0.33557	3.98E-05	1144.8672	-4.21E-04	-46.69426	4.99E-08
214.15806	-0.33447	4.00E-05	1144.75155	-4.19E-04	-38.39066	4.10E-08
214.21147	-0.3334	4.01E-05	1144.60202	-4.16E-04	-40.16776	4.29E-08
214.26487	-0.33234	3.99E-05	1145.01618	-4.14E-04	-37.81352	4.04E-08
214.31828	-0.33127	3.99E-05	1145.34376	-4.12E-04	-41.42911	4.42E-08
214.37168	-0.3302	3.99E-05	1144.9379	-4.10E-04	-43.52196	4.65E-08
214.42509	-0.32913	3.99E-05	1144.63387	-4.08E-04	-39.90313	4.26E-08
214.4785	-0.32806	4.00E-05	1144.64989	-4.06E-04	-37.04445	3.96E-08
214.5319	-0.327	3.99E-05	1144.64621	-4.04E-04	-39.15338	4.18E-08
214.58531	-0.32593	3.99E-05	1144.60883	-4.01E-04	-39.50307	4.22E-08
214.63871	-0.32486	3.98E-05	1144.80467	-3.99E-04	-41.13574	4.39E-08
214.69212	-0.32379	4.00E-05	1145.23723	-3.97E-04	-37.51816	4.01E-08
214.74553	-0.32272	3.98E-05	1145.07691	-3.95E-04	-36.57495	3.91E-08
214.79893	-0.32162	3.98E-05	1144.5589	-3.93E-04	-37.12752	3.97E-08
214.85234	-0.32056	4.00E-05	1144.81911	-3.91E-04	-35.2205	3.76E-08
214.90574	-0.31952	3.98E-05	1145.33712	-3.89E-04	-38.14661	4.07E-08
214.95915	-0.31842	3.98E-05	1145.47976	-3.87E-04	-32.52352	3.47E-08
215.01256	-0.31738	3.98E-05	1145.56816	-3.84E-04	-32.93323	3.52E-08
215.06596	-0.31631	3.97E-05	1145.26376	-3.82E-04	-34.04135	3.64E-08
215.11937	-0.31522	4.00E-05	1144.99715	-3.80E-04	-31.79916	3.40E-08
215.17277	-0.31415	3.99E-05	1144.97579	-3.78E-04	-30.99492	3.31E-08
215.22618	-0.31308	3.98E-05	1144.97254	-3.76E-04	-35.34614	3.77E-08
215.27959	-0.31201	3.99E-05	1145.0206	-3.74E-04	-35.18988	3.76E-08
215.33299	-0.31097	3.98E-05	1145.1143	-3.72E-04	-37.1966	3.97E-08
215.3864	-0.30988	4.03E-05	1145.27985	-3.70E-04	-30.25726	3.23E-08
215.4398	-0.30878	3.99E-05	1145.29389	-3.67E-04	-23.97895	2.56E-08
215.49321	-0.30774	3.98E-05	1145.16572	-3.65E-04	-29.68838	3.17E-08
215.54662	-0.30664	3.99E-05	1145.35016	-3.63E-04	-31.2895	3.34E-08
215.60002	-0.30557	3.99E-05	1145.70796	-3.61E-04	-29.71203	3.17E-08
215.65343	-0.30453	3.98E-05	1145.61302	-3.59E-04	-30.86986	3.30E-08
215.70683	-0.30347	3.97E-05	1145.38339	-3.57E-04	-30.66774	3.28E-08
215.76024	-0.3024	3.98E-05	1145.4943	-3.55E-04	-26.30439	2.81E-08
215.81365	-0.30133	3.98E-05	1145.6333	-3.52E-04	-25.64345	2.74E-08
215.86705	-0.30023	3.98E-05	1145.37163	-3.50E-04	-25.81642	2.76E-08
215.92046	-0.29916	3.99E-05	1145.14673	-3.48E-04	-27.07169	2.89E-08
215.97386	-0.29813	3.98E-05	1145.12537	-3.46E-04	-32.49363	3.47E-08
216.02727	-0.29703	3.98E-05	1145.07705	-3.44E-04	-28.09962	3.00E-08
216.08068	-0.29596	3.99E-05	1144.95956	-3.42E-04	-31.59598	3.37E-08
216.13408	-0.29492	3.99E-05	1144.93139	-3.40E-04	-30.65933	3.27E-08
216.18749	-0.29382	3.99E-05	1145.03286	-3.38E-04	-27.84059	2.97E-08
216.24089	-0.29276	3.99E-05	1145.07428	-3.35E-04	-27.10502	2.89E-08
216.2943	-0.29169	3.99E-05	1145.0636	-3.33E-04	-25.79435	2.75E-08
216.34771	-0.29062	3.99E-05	1145.18743	-3.31E-04	-23.57196	2.52E-08
216.40111	-0.28955	3.99E-05	1145.37968	-3.29E-04	-26.11181	2.79E-08
216.45452	-0.28848	3.98E-05	1145.66478	-3.27E-04	-22.98239	2.45E-08
216.50792	-0.28741	3.99E-05	1145.97451	-3.25E-04	-26.96979	2.88E-08
216.56133	-0.28635	4.00E-05	1146.27445	-3.23E-04	-28.4239	3.04E-08
216.61474	-0.28528	3.99E-05	1146.55952	-3.21E-04	-20.84287	2.23E-08
216.66814	-0.28421	3.99E-05	1146.54884	-3.18E-04	-25.83715	2.76E-08
216.72155	-0.28314	3.98E-05	1146.5612	-3.16E-04	-25.77987	2.75E-08
216.77495	-0.28207	3.99E-05	1146.68403	-3.14E-04	-23.6506	2.53E-08
216.82836	-0.28101	4.00E-05	1146.6354	-3.12E-04	-23.41195	2.50E-08
216.88177	-0.27994	4.00E-05	1146.18682	-3.10E-04	-22.42672	2.40E-08
216.93517	-0.27887	3.99E-05	1145.93457	-3.08E-04	-23.91601	2.55E-08
216.98858	-0.2778	4.00E-05	1145.94525	-3.06E-04	-20.17954	2.16E-08
217.04198	-0.27673	4.00E-05	1145.72773	-3.03E-04	-21.98701	2.35E-08
217.09539	-0.27567	4.00E-05	1145.32721	-3.01E-04	-24.49871	2.62E-08
217.1488	-0.27457	4.01E-05	1145.08703	-2.99E-04	-20.31568	2.17E-08
217.2022	-0.27356	3.97E-05	1144.92148	-2.97E-04	-24.79938	2.65E-08
217.25561	-0.27246	3.99E-05	1144.60889	-2.95E-04	-22.51158	2.40E-08
217.30901	-0.27136	4.05E-05	1144.26177	-2.93E-04	-25.01829	2.67E-08
217.36242	-0.27032	4.01E-05	1144.60539	-2.91E-04	-16.89858	1.80E-08
217.41583	-0.26926	4.01E-05	1144.95929	-2.89E-04	-16.20112	1.73E-08
217.46923	-0.26816	4.02E-05	1144.79374	-2.86E-04	-16.05304	1.71E-08
217.52264	-0.26709	4.02E-05	1144.64871	-2.84E-04	-17.11136	1.83E-08
217.57604	-0.26602	4.01E-05	1144.58997	-2.82E-04	-16.87095	1.80E-08
217.62945	-0.26495	4.01E-05	1144.71556	-2.80E-04	-18.2538	1.95E-08
217.68286	-0.26392	4.02E-05	1145.23357	-2.78E-04	-16.65617	1.78E-08
217.73626	-0.26285	4.02E-05	1145.78023	-2.76E-04	-16.53164	1.77E-08
217.78967	-0.26175	4.02E-05	1146.36232	-2.74E-04	-13.65943	1.46E-08
217.84307	-0.26068	4.02E-05	1146.48728	-2.71E-04	-15.14781	1.62E-08
217.89648	-0.25961	4.03E-05	1146.27367	-2.69E-04	-14.2823	1.53E-08
217.94989	-0.25854	4.02E-05	1145.97384	-2.67E-04	-13.4438	1.44E-08
218.00329	-0.25748	4.03E-05	1145.6374	-2.65E-04	-17.05808	1.82E-08
218.0567	-0.25641	4.03E-05	1145.65087	-2.63E-04	-15.17878	1.62E-08
218.1101	-0.25534	4.03E-05	1145.73631	-2.61E-04	-16.92425	1.81E-08
218.16351	-0.25427	4.02E-05	1145.3721	-2.58E-04	-16.49923	1.76E-08
218.21692	-0.2532	4.03E-05	1144.99975	-2.56E-04	-10.40471	1.11E-08
218.27032	-0.25211	4.04E-05	1144.75943	-2.54E-04	-12.10812	1.29E-08
218.32373	-0.25107	4.04E-05	1144.62088	-2.52E-04	-12.02942	1.28E-08
218.37713	-0.25	4.04E-05	1144.86119	-2.50E-04	-12.252	1.31E-08
218.43054	-0.24893	4.04E-05	1145.15947	-2.48E-04	-7.57522	8.09E-09
218.48395	-0.24789	4.04E-05	1145.57067	-2.46E-04	-7.7378	8.26E-09
218.53735	-0.2468	4.04E-05	1145.79	-2.43E-04	-12.96246	1.38E-08
218.59076	-0.24573	4.05E-05	1145.79	-2.41E-04	-12.131	1.30E-08
218.64416	-0.24466	4.05E-05	1145.89469	-2.39E-04	-13.03287	1.39E-08
218.69757	-0.24359	4.05E-05	1146.07092	-2.37E-04	-12.19959	1.30E-08
218.75098	-0.24252	4.06E-05	1145.92735	-2.35E-04	-12.13505	1.30E-08
218.80438	-0.24146	4.05E-05	1145.66033	-2.33E-04	-8.94653	9.55E-09
218.85779	-0.24039	4.07E-05	1145.37972	-2.30E-04	-7.50949	8.02E-09
218.91119	-0.23932	4.07E-05	1145.09668	-2.28E-04	-6.25086	6.68E-09
218.9646	-0.23825	4.07E-05	1145.26728	-2.26E-04	-9.85959	1.05E-08
219.01801	-0.23718	4.06E-05	1145.47214	-2.24E-04	-6.6427	7.09E-09
219.07141	-0.23608	4.08E-05	1145.87801	-2.22E-04	-9.77549	1.04E-08
219.12482	-0.23508	4.02E-05	1146.0739	-2.20E-04	-6.65569	7.11E-09
219.17822	-0.23401	4.06E-05	1145.57191	-2.17E-04	-9.25957	9.89E-09
219.23163	-0.23291	4.09E-05	1145.24617	-2.15E-04	-6.26356	6.69E-09
219.28504	-0.23184	4.13E-05	1145.23549	-2.13E-04	-7.82534	8.36E-09
219.33844	-0.23074	4.09E-05	1145.38578	-2.11E-04	-6.67182	7.13E-09
219.39185	-0.22968	4.09E-05	1145.7062	-2.09E-04	-5.68309	6.07E-09
219.44525	-0.22864	4.10E-05	1145.60062	-2.06E-04	-7.92304	8.46E-09
219.49866	-0.22754	4.10E-05	1145.2268	-2.04E-04	-6.42885	6.87E-09
219.55207	-0.22647	4.11E-05	1144.95191	-2.02E-04	-9.84975	1.05E-08
219.60547	-0.22543	4.10E-05	1144.7116	-2.00E-04	-1.94566	2.08E-09
219.65888	-0.22433	4.11E-05	1144.73102	-1.98E-04	-2.04666	2.19E-09
219.71228	-0.2233	4.12E-05	1144.78976	-1.95E-04	-8.42654	9.00E-09
219.76569	-0.22223	4.12E-05	1144.6198	-1.93E-04	-6.09336	6.51E-09
219.8191	-0.22113	4.13E-05	1144.47659	-1.91E-04	-2.75974	2.95E-09
219.8725	-0.22006	4.12E-05	1144.52999	-1.89E-04	-3.76971	4.03E-09
219.92591	-0.21899	4.13E-05	1144.53249	-1.87E-04	0.71259	-7.61E-10
219.97931	-0.21793	4.14E-05	1144.38296	-1.84E-04	-2.14572	2.29E-09
220.03272	-0.21689	4.14E-05	1144.2799	-1.82E-04	1.95712	-2.09E-09
220.08613	-0.21582	4.14E-05	1144.2532	-1.80E-04	-1.06959	1.14E-09
220.13953	-0.21472	4.14E-05	1144.43175	-1.78E-04	-0.78691	8.40E-10
220.19294	-0.21368	4.16E-05	1144.81091	-1.76E-04	1.53981	-1.64E-09
220.24634	-0.21259	4.16E-05	1145.11907	-1.73E-04	-5.52652	5.90E-09
220.29975	-0.21152	4.17E-05	1145.38608	-1.71E-04	-1.27393	1.36E-09
220.35316	-0.21048	4.17E-05	1145.2794	-1.69E-04	-0.96383	1.03E-09
220.40656	-0.20938	4.17E-05	1145.05511	-1.67E-04	4.55518	-4.86E-09
220.45997	-0.20831	4.18E-05	1145.23867	-1.64E-04	-2.31402	2.47E-09
220.51337	-0.20728	4.19E-05	1145.47298	-1.62E-04	-2.14564	2.29E-09
220.56678	-0.20618	4.19E-05	1145.66523	-1.60E-04	-1.6012	1.71E-09
220.62019	-0.20511	4.20E-05	1145.84298	-1.58E-04	1.45451	-1.55E-09
220.67359	-0.20404	4.21E-05	1145.93376	-1.55E-04	-0.65368	6.98E-10
220.727	-0.203	4.21E-05	1146.08953	-1.53E-04	0.10194	-1.09E-10

